Frequency(Hz),Amp(dB)
10000000,-0.1286317
20000000,-0.132979159
30000000,-0.145628432
40000000,-0.161492128
50000000,-0.172105697
60000000,-0.180348483
70000000,-0.190934728
80000000,-0.200797243
90000000,-0.210728069
100000000,-0.220423501
110000000,-0.229368158
120000000,-0.237948229
130000000,-0.246193898
140000000,-0.25368421
150000000,-0.261603338
160000000,-0.269178877
170000000,-0.276369922
180000000,-0.283304692
190000000,-0.290111247
200000000,-0.297030822
210000000,-0.30369741
220000000,-0.309940024
230000000,-0.316158258
240000000,-0.322224337
250000000,-0.328358022
260000000,-0.334562222
270000000,-0.340683287
280000000,-0.34678755
290000000,-0.352861862
300000000,-0.358859918
310000000,-0.364743078
320000000,-0.370559381
330000000,-0.376156582
340000000,-0.38170437
350000000,-0.387023837
360000000,-0.39218377
370000000,-0.397345614
380000000,-0.402313188
390000000,-0.407323734
400000000,-0.412266745
410000000,-0.417348788
420000000,-0.422448427
430000000,-0.427574886
440000000,-0.432689762
450000000,-0.437709319
460000000,-0.442743798
470000000,-0.447726265
480000000,-0.452593657
490000000,-0.457399044
500000000,-0.462019071
510000000,-0.466578859
520000000,-0.470973977
530000000,-0.475343282
540000000,-0.479631047
550000000,-0.483870142
560000000,-0.488218324
570000000,-0.492634235
580000000,-0.497081789
590000000,-0.501610325
600000000,-0.506094912
610000000,-0.510568659
620000000,-0.514988315
630000000,-0.519363057
640000000,-0.523561757
650000000,-0.52763208
660000000,-0.531593371
670000000,-0.535441762
680000000,-0.539257538
690000000,-0.542992192
700000000,-0.546714215
710000000,-0.55042398
720000000,-0.554220317
730000000,-0.557992442
740000000,-0.561830653
750000000,-0.565637678
760000000,-0.569398341
770000000,-0.573140243
780000000,-0.576810506
790000000,-0.580409392
800000000,-0.583979949
810000000,-0.587467656
820000000,-0.590944921
830000000,-0.594366895
840000000,-5.98E-01
850000000,-0.601239427
860000000,-0.604692082
870000000,-0.608112921
880000000,-0.611523109
890000000,-0.614926913
900000000,-0.618293241
910000000,-0.621630943
920000000,-0.62494033
930000000,-0.628229851
940000000,-0.63144203
950000000,-0.634705516
960000000,-0.637918891
970000000,-0.641156095
980000000,-0.644352743
990000000,-0.647540683
1000000000,-0.650695935
1010000000,-0.654892103
1020000000,-0.659024452
1030000000,-0.663245081
1040000000,-0.66728407
1050000000,-0.671297471
1060000000,-0.675203735
1070000000,-0.679038606
1080000000,-0.682840067
1090000000,-0.686693258
1100000000,-0.690562337
1110000000,-0.694345102
1120000000,-0.698031685
1130000000,-0.701733201
1140000000,-0.705377269
1150000000,-0.70900686
1160000000,-0.712572182
1170000000,-0.716225767
1180000000,-0.719770649
1190000000,-0.723320814
1200000000,-0.726821343
1210000000,-0.7303936
1220000000,-0.733898585
1230000000,-0.737410903
1240000000,-0.740889376
1250000000,-0.744380294
1260000000,-0.747826663
1270000000,-0.751288508
1280000000,-0.754675291
1290000000,-0.758006723
1300000000,-0.761353
1310000000,-0.764675282
1320000000,-0.767974718
1330000000,-0.771239651
1340000000,-0.774501259
1350000000,-0.777734764
1360000000,-0.780883985
1370000000,-0.784090311
1380000000,-0.787206003
1390000000,-0.79032059
1400000000,-0.793491736
1410000000,-0.796569766
1420000000,-0.799699224
1430000000,-0.802830224
1440000000,-0.805920891
1450000000,-0.8090191
1460000000,-0.812122667
1470000000,-0.815229379
1480000000,-0.81831093
1490000000,-0.82140052
1500000000,-0.824454367
1510000000,-0.827505465
1520000000,-0.830542271
1530000000,-0.833614475
1540000000,-0.836614689
1550000000,-0.839625025
1560000000,-0.842581137
1570000000,-0.845538076
1580000000,-0.8484544
1590000000,-0.851333818
1600000000,-0.854217562
1610000000,-0.85705525
1620000000,-0.859895162
1630000000,-0.862693682
1640000000,-0.865469938
1650000000,-0.868284678
1660000000,-0.871031815
1670000000,-0.873776146
1680000000,-0.876554583
1690000000,-0.879315209
1700000000,-0.882104039
1710000000,-0.8848905
1720000000,-0.88766413
1730000000,-0.890457496
1740000000,-0.893289981
1750000000,-0.896078763
1760000000,-0.89886966
1770000000,-0.901651146
1780000000,-0.904438388
1790000000,-0.907239524
1800000000,-0.909984413
1810000000,-0.912741454
1820000000,-0.915456646
1830000000,-0.918152953
1840000000,-0.920792133
1850000000,-0.923442409
1860000000,-0.926060885
1870000000,-0.928676577
1880000000,-0.931278794
1890000000,-0.933835255
1900000000,-0.936361619
1910000000,-0.93886924
1920000000,-0.941399254
1930000000,-0.943886854
1940000000,-0.946397247
1950000000,-0.948948185
1960000000,-0.951437662
1970000000,-0.953934187
1980000000,-0.956448491
1990000000,-0.958997241
2000000000,-0.961545467
2010000000,-0.964102645
2020000000,-0.966671661
2030000000,-0.969234464
2040000000,-0.971840894
2050000000,-0.974386749
2060000000,-0.976938465
2070000000,-0.97948354
2080000000,-0.982051509
2090000000,-0.984598353
2100000000,-0.987094843
2110000000,-0.989595433
2120000000,-0.992103181
2130000000,-0.994529735
2140000000,-0.996951653
2150000000,-0.999347788
2160000000,-1.001703583
2170000000,-1.004064492
2180000000,-1.006442422
2190000000,-1.008792293
2200000000,-1.011106932
2210000000,-1.013442505
2220000000,-1.01577406
2230000000,-1.018135129
2240000000,-1.020469049
2250000000,-1.022849302
2260000000,-1.025258682
2270000000,-1.027636989
2280000000,-1.030030534
2290000000,-1.032468301
2300000000,-1.034900434
2310000000,-1.037343934
2320000000,-1.039781996
2330000000,-1.042262408
2340000000,-1.044728524
2350000000,-1.047165908
2360000000,-1.049655107
2370000000,-1.052110444
2380000000,-1.054549909
2390000000,-1.057000288
2400000000,-1.059440791
2410000000,-1.061849041
2420000000,-1.064230481
2430000000,-1.066597372
2440000000,-1.068970931
2450000000,-1.071340937
2460000000,-1.073632228
2470000000,-1.075957873
2480000000,-1.078296492
2490000000,-1.080619408
2500000000,-1.082955257
2510000000,-1.08526672
2520000000,-1.087584974
2530000000,-1.089924646
2540000000,-1.092248932
2550000000,-1.094608903
2560000000,-1.096968606
2570000000,-1.099338474
2580000000,-1.101658816
2590000000,-1.104009287
2600000000,-1.10637374
2610000000,-1.108734009
2620000000,-1.111095415
2630000000,-1.113448336
2640000000,-1.115801587
2650000000,-1.118164682
2660000000,-1.120504308
2670000000,-1.122829705
2680000000,-1.125168647
2690000000,-1.127478999
2700000000,-1.129761121
2710000000,-1.132047167
2720000000,-1.134334557
2730000000,-1.136618806
2740000000,-1.138872316
2750000000,-1.141113922
2760000000,-1.143392111
2770000000,-1.145635976
2780000000,-1.147910889
2790000000,-1.150184923
2800000000,-1.152469656
2810000000,-1.154743915
2820000000,-1.157004825
2830000000,-1.159289928
2840000000,-1.161530997
2850000000,-1.163796648
2860000000,-1.166112901
2870000000,-1.168396216
2880000000,-1.170635216
2890000000,-1.172904307
2900000000,-1.175141309
2910000000,-1.177368356
2920000000,-1.179582146
2930000000,-1.181845905
2940000000,-1.18407697
2950000000,-1.186334057
2960000000,-1.188572254
2970000000,-1.190806615
2980000000,-1.19303992
2990000000,-1.195298059
3000000000,-1.19757495
3010000000,-1.199769933
3020000000,-1.201993244
3030000000,-1.204199989
3040000000,-1.206495299
3050000000,-1.208739555
3060000000,-1.21096171
3070000000,-1.213214055
3080000000,-1.215475138
3090000000,-1.21766142
3100000000,-1.219886173
3110000000,-1.222046609
3120000000,-1.224202972
3130000000,-1.226403647
3140000000,-1.228604788
3150000000,-1.230796731
3160000000,-1.232937611
3170000000,-1.235120299
3180000000,-1.237274662
3190000000,-1.239443042
3200000000,-1.241586688
3210000000,-1.243728329
3220000000,-1.24585551
3230000000,-1.247990377
3240000000,-1.250106965
3250000000,-1.252264164
3260000000,-1.254365971
3270000000,-1.256521437
3280000000,-1.258652109
3290000000,-1.260795152
3300000000,-1.262935153
3310000000,-1.265035395
3320000000,-1.267173224
3330000000,-1.269309291
3340000000,-1.271480124
3350000000,-1.273655101
3360000000,-1.275792741
3370000000,-1.277894351
3380000000,-1.28003688
3390000000,-1.282128461
3400000000,-1.284257074
3410000000,-1.286375917
3420000000,-1.288475224
3430000000,-1.290530094
3440000000,-1.29260884
3450000000,-1.294666761
3460000000,-1.296723197
3470000000,-1.298773283
3480000000,-1.300818141
3490000000,-1.302829354
3500000000,-1.304848461
3510000000,-1.306896506
3520000000,-1.308895042
3530000000,-1.310919698
3540000000,-1.312943184
3550000000,-1.314977596
3560000000,-1.317013824
3570000000,-1.319053258
3580000000,-1.32110759
3590000000,-1.323153838
3600000000,-1.325211583
3610000000,-1.327229601
3620000000,-1.329272652
3630000000,-1.331320229
3640000000,-1.333323435
3650000000,-1.335360352
3660000000,-1.337412126
3670000000,-1.339466329
3680000000,-1.341481534
3690000000,-1.343469727
3700000000,-1.345454449
3710000000,-1.347455336
3720000000,-1.349442035
3730000000,-1.35139028
3740000000,-1.353361284
3750000000,-1.355305659
3760000000,-1.357262966
3770000000,-1.359211413
3780000000,-1.361132222
3790000000,-1.363081163
3800000000,-1.364994214
3810000000,-1.36693006
3820000000,-1.368872117
3830000000,-1.370801652
3840000000,-1.372749991
3850000000,-1.374682239
3860000000,-1.376634969
3870000000,-1.37858066
3880000000,-1.380569533
3890000000,-1.382538781
3900000000,-1.38453619
3910000000,-1.386467078
3920000000,-1.38844389
3930000000,-1.390387604
3940000000,-1.392307833
3950000000,-1.394265935
3960000000,-1.396245435
3970000000,-1.398226145
3980000000,-1.400210386
3990000000,-1.4021838
4000000000,-1.404139571
4010000000,-1.406130488
4020000000,-1.40811246
4030000000,-1.410082458
4040000000,-1.412070298
4050000000,-1.414105942
4060000000,-1.416118919
4070000000,-1.418104231
4080000000,-1.420080544
4090000000,-1.422065061
4100000000,-1.424057645
4110000000,-1.426018101
4120000000,-1.427993459
4130000000,-1.429945389
4140000000,-1.431923776
4150000000,-1.433888649
4160000000,-1.435870131
4170000000,-1.43780573
4180000000,-1.439748173
4190000000,-1.441708377
4200000000,-1.443689112
4210000000,-1.445633511
4220000000,-1.447575323
4230000000,-1.449522339
4240000000,-1.451472013
4250000000,-1.453427046
4260000000,-1.455398752
4270000000,-1.457385799
4280000000,-1.459401297
4290000000,-1.461435747
4300000000,-1.463431592
4310000000,-1.465461668
4320000000,-1.467472522
4330000000,-1.469494559
4340000000,-1.47148833
4350000000,-1.473440005
4360000000,-1.475437859
4370000000,-1.477447805
4380000000,-1.479481533
4390000000,-1.481458204
4400000000,-1.483426277
4410000000,-1.485331635
4420000000,-1.48727025
4430000000,-1.489172156
4440000000,-1.491083754
4450000000,-1.493021032
4460000000,-1.494912346
4470000000,-1.496803131
4480000000,-1.498691228
4490000000,-1.500614505
4500000000,-1.502540854
4510000000,-1.504435332
4520000000,-1.506341761
4530000000,-1.508254545
4540000000,-1.510167008
4550000000,-1.512077828
4560000000,-1.513995991
4570000000,-1.515955034
4580000000,-1.517915653
4590000000,-1.519853697
4600000000,-1.521771721
4610000000,-1.523691502
4620000000,-1.525621227
4630000000,-1.52756326
4640000000,-1.529464548
4650000000,-1.531400832
4660000000,-1.533331469
4670000000,-1.535206265
4680000000,-1.537063214
4690000000,-1.538956692
4700000000,-1.540806045
4710000000,-1.542690101
4720000000,-1.544506662
4730000000,-1.546385596
4740000000,-1.548237603
4750000000,-1.550047129
4760000000,-1.551853425
4770000000,-1.553597325
4780000000,-1.555418038
4790000000,-1.557254892
4800000000,-1.559055963
4810000000,-1.560851475
4820000000,-1.562653874
4830000000,-1.564500032
4840000000,-1.566298483
4850000000,-1.56809219
4860000000,-1.569910501
4870000000,-1.571742022
4880000000,-1.573569224
4890000000,-1.575463797
4900000000,-1.577335457
4910000000,-1.579203018
4920000000,-1.580994138
4930000000,-1.582842856
4940000000,-1.584657482
4950000000,-1.586495322
4960000000,-1.588328882
4970000000,-1.590164035
4980000000,-1.591961171
4990000000,-1.593730463
5000000000,-1.59560986
5010000000,-1.597414432
5020000000,-1.599214663
5030000000,-1.600996047
5040000000,-1.602814167
5050000000,-1.604684792
5060000000,-1.606549454
5070000000,-1.60837024
5080000000,-1.610229691
5090000000,-1.612112507
5100000000,-1.614070223
5110000000,-1.615944826
5120000000,-1.617806042
5130000000,-1.619698252
5140000000,-1.621508697
5150000000,-1.623343952
5160000000,-1.625193615
5170000000,-1.627031461
5180000000,-1.6288561
5190000000,-1.630693184
5200000000,-1.632535007
5210000000,-1.634390278
5220000000,-1.636223241
5230000000,-1.638063254
5240000000,-1.63990956
5250000000,-1.641754952
5260000000,-1.643562758
5270000000,-1.64544423
5280000000,-1.647293263
5290000000,-1.649145453
5300000000,-1.65103687
5310000000,-1.652982053
5320000000,-1.654879044
5330000000,-1.65676827
5340000000,-1.658696971
5350000000,-1.660595274
5360000000,-1.662570168
5370000000,-1.66452952
5380000000,-1.666471252
5390000000,-1.668380872
5400000000,-1.670280667
5410000000,-1.672230249
5420000000,-1.674182034
5430000000,-1.676116215
5440000000,-1.678016544
5450000000,-1.679930881
5460000000,-1.681816024
5470000000,-1.683701386
5480000000,-1.68560123
5490000000,-1.687505913
5500000000,-1.689353231
5510000000,-1.691196267
5520000000,-1.69307715
5530000000,-1.694949476
5540000000,-1.696829708
5550000000,-1.69871712
5560000000,-1.700615866
5570000000,-1.702544365
5580000000,-1.70446376
5590000000,-1.706402995
5600000000,-1.708383338
5610000000,-1.710298983
5620000000,-1.712261523
5630000000,-1.714241763
5640000000,-1.716188625
5650000000,-1.718165978
5660000000,-1.720115252
5670000000,-1.722104836
5680000000,-1.724109875
5690000000,-1.726096693
5700000000,-1.728026911
5710000000,-1.729983788
5720000000,-1.731938352
5730000000,-1.733883612
5740000000,-1.735826833
5750000000,-1.73775922
5760000000,-1.739672508
5770000000,-1.741615238
5780000000,-1.743547133
5790000000,-1.745490096
5800000000,-1.747446775
5810000000,-1.749348185
5820000000,-1.751317493
5830000000,-1.753253819
5840000000,-1.755156561
5850000000,-1.757094185
5860000000,-1.759026239
5870000000,-1.760976919
5880000000,-1.762906248
5890000000,-1.764848912
5900000000,-1.766851347
5910000000,-1.768823535
5920000000,-1.770762966
5930000000,-1.772756546
5940000000,-1.774745376
5950000000,-1.776684544
5960000000,-1.77862262
5970000000,-1.780530812
5980000000,-1.782433168
5990000000,-1.784359163
6000000000,-1.786299789
6010000000,-1.788244397
6020000000,-1.790157274
6030000000,-1.792053928
6040000000,-1.793925358
6050000000,-1.795826428
6060000000,-1.7977688
6070000000,-1.799729438
6080000000,-1.801687818
6090000000,-1.803616928
6100000000,-1.805544476
6110000000,-1.807485304
6120000000,-1.80943872
6130000000,-1.811400002
6140000000,-1.813354243
6150000000,-1.815285715
6160000000,-1.817227653
6170000000,-1.819212961
6180000000,-1.821142351
6190000000,-1.823032337
6200000000,-1.824970209
6210000000,-1.826894231
6220000000,-1.828807709
6230000000,-1.83068311
6240000000,-1.832564503
6250000000,-1.834434332
6260000000,-1.836315934
6270000000,-1.838178259
6280000000,-1.840038332
6290000000,-1.841929998
6300000000,-1.843813467
6310000000,-1.845690935
6320000000,-1.847581667
6330000000,-1.849519684
6340000000,-1.851476934
6350000000,-1.853446857
6360000000,-1.855396395
6370000000,-1.857318706
6380000000,-1.859288305
6390000000,-1.861283313
6400000000,-1.863332299
6410000000,-1.865341663
6420000000,-1.867405729
6430000000,-1.869393133
6440000000,-1.871377122
6450000000,-1.873407864
6460000000,-1.875400237
6470000000,-1.87738397
6480000000,-1.879294626
6490000000,-1.88124788
6500000000,-1.88312209
6510000000,-1.884962969
6520000000,-1.886836252
6530000000,-1.888686082
6540000000,-1.890537679
6550000000,-1.892386552
6560000000,-1.894176169
6570000000,-1.895979167
6580000000,-1.897808448
6590000000,-1.899671511
6600000000,-1.901535869
6610000000,-1.903389407
6620000000,-1.90528214
6630000000,-1.907181289
6640000000,-1.909069533
6650000000,-1.910924401
6660000000,-1.912819365
6670000000,-1.914746892
6680000000,-1.916680508
6690000000,-1.918647512
6700000000,-1.920550986
6710000000,-1.922504112
6720000000,-1.924438038
6730000000,-1.926387932
6740000000,-1.928319953
6750000000,-1.93026971
6760000000,-1.932233524
6770000000,-1.934085761
6780000000,-1.935940592
6790000000,-1.937778928
6800000000,-1.93961994
6810000000,-1.941414559
6820000000,-1.943207812
6830000000,-1.945017574
6840000000,-1.946738025
6850000000,-1.948471311
6860000000,-1.95020674
6870000000,-1.951894148
6880000000,-1.953563844
6890000000,-1.955232822
6900000000,-1.956900791
6910000000,-1.958645066
6920000000,-1.960360898
6930000000,-1.962047097
6940000000,-1.963730813
6950000000,-1.965433759
6960000000,-1.967127443
6970000000,-1.968850107
6980000000,-1.970590598
6990000000,-1.972306009
7000000000,-1.974053078
7010000000,-1.975789548
7020000000,-1.97757416
7030000000,-1.979316559
7040000000,-1.981021864
7050000000,-1.982756809
7060000000,-1.984461271
7070000000,-1.986186287
7080000000,-1.987849768
7090000000,-1.989478165
7100000000,-1.991159688
7110000000,-1.992809074
7120000000,-1.99440649
7130000000,-1.996045057
7140000000,-1.997663081
7150000000,-1.999241063
7160000000,-2.000837122
7170000000,-2.002437649
7180000000,-2.004004037
7190000000,-2.005546203
7200000000,-2.00712349
7210000000,-2.008736072
7220000000,-2.010349739
7230000000,-2.011934999
7240000000,-2.01356446
7250000000,-2.015202375
7260000000,-2.016803635
7270000000,-2.0184194
7280000000,-2.020013325
7290000000,-2.021606137
7300000000,-2.023185593
7310000000,-2.024807321
7320000000,-2.026377496
7330000000,-2.027955645
7340000000,-2.029544044
7350000000,-2.031116164
7360000000,-2.032709226
7370000000,-2.034306872
7380000000,-2.035929156
7390000000,-2.037589633
7400000000,-2.039252395
7410000000,-2.040966463
7420000000,-2.042660113
7430000000,-2.044412435
7440000000,-2.046118208
7450000000,-2.047866792
7460000000,-2.049638815
7470000000,-2.051418511
7480000000,-2.053232127
7490000000,-2.055050532
7500000000,-2.05691017
7510000000,-2.058669838
7520000000,-2.060503753
7530000000,-2.062323513
7540000000,-2.064122767
7550000000,-2.065900981
7560000000,-2.067662086
7570000000,-2.069421194
7580000000,-2.071200373
7590000000,-2.072949744
7600000000,-2.074741756
7610000000,-2.076473496
7620000000,-2.078248301
7630000000,-2.080038616
7640000000,-2.081774844
7650000000,-2.083522077
7660000000,-2.085252932
7670000000,-2.08706263
7680000000,-2.088840464
7690000000,-2.090695723
7700000000,-2.092527894
7710000000,-2.094393547
7720000000,-2.096287405
7730000000,-2.098227656
7740000000,-2.100163847
7750000000,-2.102147364
7760000000,-2.104135946
7770000000,-2.106133438
7780000000,-2.108147581
7790000000,-2.110170611
7800000000,-2.112207646
7810000000,-2.114230294
7820000000,-2.116278976
7830000000,-2.118350389
7840000000,-2.120308322
7850000000,-2.122310284
7860000000,-2.124258611
7870000000,-2.126211074
7880000000,-2.128130973
7890000000,-2.130028948
7900000000,-2.13190224
7910000000,-2.133808148
7920000000,-2.135640839
7930000000,-2.13742959
7940000000,-2.139272904
7950000000,-2.141066857
7960000000,-2.142902883
7970000000,-2.144724044
7980000000,-2.146486714
7990000000,-2.148267162
8000000000,-2.150056754
8010000000,-2.151900714
8020000000,-2.153785902
8030000000,-2.155674344
8040000000,-2.157567643
8050000000,-2.159503018
8060000000,-2.161467163
8070000000,-2.163435816
8080000000,-2.16543821
8090000000,-2.167469963
8100000000,-2.169565895
8110000000,-2.171678768
8120000000,-2.173762052
8130000000,-2.175862139
8140000000,-2.177964348
8150000000,-2.180037119
8160000000,-2.182067553
8170000000,-2.184162543
8180000000,-2.186228332
8190000000,-2.188211211
8200000000,-2.190176168
8210000000,-2.192115978
8220000000,-2.194027239
8230000000,-2.195921046
8240000000,-2.19773852
8250000000,-2.199543237
8260000000,-2.201298199
8270000000,-2.203003027
8280000000,-2.204685812
8290000000,-2.20636493
8300000000,-2.208049139
8310000000,-2.209709286
8320000000,-2.211367398
8330000000,-2.213034036
8340000000,-2.214726805
8350000000,-2.216447688
8360000000,-2.218191442
8370000000,-2.219964137
8380000000,-2.221765319
8390000000,-2.223615349
8400000000,-2.225482293
8410000000,-2.227336095
8420000000,-2.229287628
8430000000,-2.231232714
8440000000,-2.233182172
8450000000,-2.235165841
8460000000,-2.237164288
8470000000,-2.239223025
8480000000,-2.241183056
8490000000,-2.243215687
8500000000,-2.245251099
8510000000,-2.247229701
8520000000,-2.249165037
8530000000,-2.25104786
8540000000,-2.25291543
8550000000,-2.254822012
8560000000,-2.256647173
8570000000,-2.258454025
8580000000,-2.260182039
8590000000,-2.261920881
8600000000,-2.263644725
8610000000,-2.265311605
8620000000,-2.266986378
8630000000,-2.268661179
8640000000,-2.270340394
8650000000,-2.272051141
8660000000,-2.273778197
8670000000,-2.275514275
8680000000,-2.277245601
8690000000,-2.279100961
8700000000,-2.280953362
8710000000,-2.282834853
8720000000,-2.284733507
8730000000,-2.286668419
8740000000,-2.28867606
8750000000,-2.290649537
8760000000,-2.292700076
8770000000,-2.294742248
8780000000,-2.296807133
8790000000,-2.298842423
8800000000,-2.300913227
8810000000,-2.302915257
8820000000,-2.304948345
8830000000,-2.306934619
8840000000,-2.308857003
8850000000,-2.31075846
8860000000,-2.312608838
8870000000,-2.314446063
8880000000,-2.316271379
8890000000,-2.318011483
8900000000,-2.319747969
8910000000,-2.321454166
8920000000,-2.323181418
8930000000,-2.324860522
8940000000,-2.326556955
8950000000,-2.328260769
8960000000,-2.329937602
8970000000,-2.331622897
8980000000,-2.33329884
8990000000,-2.335028586
9000000000,-2.336789945
9010000000,-2.338430629
9020000000,-2.340124979
9030000000,-2.341891463
9040000000,-2.343676887
9050000000,-2.345437355
9060000000,-2.34724137
9070000000,-2.349086728
9080000000,-2.350909612
9090000000,-2.352717991
9100000000,-2.354582023
9110000000,-2.356438827
9120000000,-2.358300979
9130000000,-2.360141382
9140000000,-2.361938297
9150000000,-2.363755794
9160000000,-2.36561586
9170000000,-2.367427788
9180000000,-2.369268103
9190000000,-2.371011767
9200000000,-2.372725745
9210000000,-2.374396446
9220000000,-2.376069015
9230000000,-2.377735381
9240000000,-2.379378936
9250000000,-2.381036323
9260000000,-2.382638741
9270000000,-2.384267271
9280000000,-2.385893679
9290000000,-2.387473837
9300000000,-2.389032994
9310000000,-2.390639805
9320000000,-2.392169744
9330000000,-2.393707317
9340000000,-2.395329391
9350000000,-2.396847506
9360000000,-2.398404101
9370000000,-2.399942514
9380000000,-2.401473771
9390000000,-2.402950146
9400000000,-2.40446008
9410000000,-2.406011684
9420000000,-2.407544578
9430000000,-2.409102667
9440000000,-2.410698762
9450000000,-2.412302673
9460000000,-2.413926184
9470000000,-2.41557039
9480000000,-2.41722404
9490000000,-2.418916416
9500000000,-2.420662087
9510000000,-2.422354506
9520000000,-2.424040574
9530000000,-2.42575381
9540000000,-2.427498822
9550000000,-2.429187791
9560000000,-2.430889714
9570000000,-2.4325572
9580000000,-2.434182757
9590000000,-2.435857048
9600000000,-2.437521664
9610000000,-2.439135002
9620000000,-2.440693722
9630000000,-2.442244456
9640000000,-2.44380647
9650000000,-2.445330296
9660000000,-2.446737762
9670000000,-2.4482526
9680000000,-2.449743359
9690000000,-2.451297378
9700000000,-2.452826159
9710000000,-2.454409841
9720000000,-2.455990619
9730000000,-2.457636868
9740000000,-2.459354226
9750000000,-2.461101566
9760000000,-2.462902039
9770000000,-2.464761916
9780000000,-2.466672143
9790000000,-2.468656031
9800000000,-2.470711919
9810000000,-2.472727044
9820000000,-2.474824548
9830000000,-2.47694609
9840000000,-2.479071356
9850000000,-2.481212393
9860000000,-2.483322144
9870000000,-2.485417474
9880000000,-2.487465543
9890000000,-2.489474211
9900000000,-2.491462058
9910000000,-2.493397044
9920000000,-2.495303987
9930000000,-2.497144482
9940000000,-2.498968211
9950000000,-2.500701082
9960000000,-2.502409903
9970000000,-2.504154693
9980000000,-2.505821638
9990000000,-2.507521397
10000000000,-2.509218462
10010000000,-2.510919363
10020000000,-2.512654996
10030000000,-2.514397153
10040000000,-2.51615109
10050000000,-2.517940646
10060000000,-2.519819205
10070000000,-2.521730026
10080000000,-2.523742833
10090000000,-2.525683729
10100000000,-2.527684829
10110000000,-2.529757022
10120000000,-2.531871231
10130000000,-2.534012029
10140000000,-2.536159546
10150000000,-2.538311668
10160000000,-2.540403802
10170000000,-2.542493107
10180000000,-2.544564083
10190000000,-2.546595062
10200000000,-2.548581677
10210000000,-2.550500884
10220000000,-2.552363318
10230000000,-2.554245516
10240000000,-2.556024068
10250000000,-2.557787866
10260000000,-2.559528349
10270000000,-2.561192027
10280000000,-2.562819125
10290000000,-2.56441102
10300000000,-2.566029388
10310000000,-2.567652987
10320000000,-2.569239497
10330000000,-2.57084727
10340000000,-2.572436202
10350000000,-2.574058505
10360000000,-2.575740416
10370000000,-2.577408025
10380000000,-2.57910733
10390000000,-2.580793928
10400000000,-2.582540911
10410000000,-2.584278253
10420000000,-2.58606896
10430000000,-2.587869936
10440000000,-2.589648205
10450000000,-2.591387847
10460000000,-2.593088285
10470000000,-2.594856749
10480000000,-2.596562805
10490000000,-2.598231483
10500000000,-2.5998724
10510000000,-2.601496506
10520000000,-2.603107374
10530000000,-2.604676276
10540000000,-2.606181477
10550000000,-2.607719595
10560000000,-2.609178261
10570000000,-2.610633605
10580000000,-2.612018634
10590000000,-2.613415566
10600000000,-2.614784876
10610000000,-2.616135002
10620000000,-2.617505247
10630000000,-2.618848707
10640000000,-2.620207384
10650000000,-2.621539277
10660000000,-2.622860316
10670000000,-2.624172562
10680000000,-2.625465152
10690000000,-2.626795815
10700000000,-2.628099013
10710000000,-2.629453125
10720000000,-2.630818138
10730000000,-2.632135248
10740000000,-2.633533072
10750000000,-2.634916172
10760000000,-2.636282226
10770000000,-2.637641972
10780000000,-2.639067098
10790000000,-2.640436422
10800000000,-2.641869209
10810000000,-2.643282108
10820000000,-2.644802282
10830000000,-2.646321983
10840000000,-2.647864912
10850000000,-2.649450061
10860000000,-2.651025482
10870000000,-2.652539595
10880000000,-2.654153444
10890000000,-2.655742965
10900000000,-2.657309593
10910000000,-2.658814997
10920000000,-2.660398092
10930000000,-2.661952731
10940000000,-2.663440735
10950000000,-2.664974006
10960000000,-2.666452917
10970000000,-2.667915205
10980000000,-2.669405825
10990000000,-2.67083371
11000000000,-2.672307784
11010000000,-2.673706068
11020000000,-2.675122266
11030000000,-2.676527031
11040000000,-2.678023082
11050000000,-2.679496213
11060000000,-2.680979764
11070000000,-2.68254803
11080000000,-2.684148848
11090000000,-2.685736823
11100000000,-2.687410764
11110000000,-2.689132726
11120000000,-2.690925709
11130000000,-2.692793447
11140000000,-2.69460539
11150000000,-2.69640339
11160000000,-2.698341157
11170000000,-2.700270109
11180000000,-2.702292171
11190000000,-2.704289412
11200000000,-2.706317919
11210000000,-2.708360354
11220000000,-2.710375658
11230000000,-2.712378644
11240000000,-2.714331123
11250000000,-2.71630598
11260000000,-2.718234851
11270000000,-2.720158817
11280000000,-2.722098757
11290000000,-2.724000722
11300000000,-2.725896839
11310000000,-2.727852302
11320000000,-2.729794718
11330000000,-2.731678969
11340000000,-2.733611091
11350000000,-2.735551571
11360000000,-2.737524643
11370000000,-2.739521965
11380000000,-2.74156864
11390000000,-2.743615133
11400000000,-2.745691233
11410000000,-2.747810909
11420000000,-2.749970383
11430000000,-2.752131682
11440000000,-2.754361275
11450000000,-2.756613391
11460000000,-2.758878659
11470000000,-2.761167878
11480000000,-2.763411213
11490000000,-2.765752533
11500000000,-2.768063609
11510000000,-2.77046487
11520000000,-2.772830938
11530000000,-2.775173343
11540000000,-2.77763067
11550000000,-2.780015445
11560000000,-2.782365695
11570000000,-2.7847365
11580000000,-2.787034648
11590000000,-2.789328531
11600000000,-2.791601507
11610000000,-2.793870801
11620000000,-2.796125084
11630000000,-2.798372472
11640000000,-2.800582529
11650000000,-2.802809638
11660000000,-2.804918123
11670000000,-2.807011044
11680000000,-2.8090612
11690000000,-2.811114844
11700000000,-2.813127365
11710000000,-2.815143636
11720000000,-2.81710284
11730000000,-2.819002338
11740000000,-2.820909288
11750000000,-2.822779948
11760000000,-2.824651054
11770000000,-2.826521387
11780000000,-2.828365748
11790000000,-2.830172747
11800000000,-2.832030079
11810000000,-2.833788948
11820000000,-2.835658635
11830000000,-2.837512008
11840000000,-2.839374507
11850000000,-2.84130008
11860000000,-2.843203784
11870000000,-2.845159219
11880000000,-2.847123858
11890000000,-2.849074018
11900000000,-2.85105024
11910000000,-2.853066803
11920000000,-2.855045119
11930000000,-2.857066926
11940000000,-2.859049105
11950000000,-2.86100654
11960000000,-2.862974636
11970000000,-2.864888765
11980000000,-2.866762454
11990000000,-2.868542293
12000000000,-2.87032983
12010000000,-2.872063601
12020000000,-2.873765788
12030000000,-2.875420644
12040000000,-2.877040335
12050000000,-2.878599098
12060000000,-2.880149131
12070000000,-2.881614313
12080000000,-2.883105676
12090000000,-2.884553227
12100000000,-2.885955807
12110000000,-2.887396425
12120000000,-2.888773459
12130000000,-2.890189608
12140000000,-2.89166284
12150000000,-2.893174287
12160000000,-2.894739633
12170000000,-2.896346495
12180000000,-2.897985766
12190000000,-2.899616136
12200000000,-2.901350725
12210000000,-2.903125874
12220000000,-2.904907884
12230000000,-2.906721954
12240000000,-2.908505174
12250000000,-2.910313719
12260000000,-2.912164846
12270000000,-2.91393037
12280000000,-2.915754011
12290000000,-2.917501888
12300000000,-2.919173327
12310000000,-2.920803074
12320000000,-2.922354906
12330000000,-2.923867639
12340000000,-2.925289035
12350000000,-2.92665056
12360000000,-2.927961948
12370000000,-2.929264415
12380000000,-2.930549658
12390000000,-2.931736332
12400000000,-2.932910106
12410000000,-2.934066708
12420000000,-2.93520533
12430000000,-2.936324267
12440000000,-2.937460378
12450000000,-2.938622803
12460000000,-2.939755573
12470000000,-2.94098189
12480000000,-2.942219291
12490000000,-2.943490554
12500000000,-2.944844931
12510000000,-2.94624354
12520000000,-2.947588007
12530000000,-2.949003673
12540000000,-2.950428593
12550000000,-2.951929865
12560000000,-2.953421672
12570000000,-2.954972366
12580000000,-2.956510787
12590000000,-2.957993237
12600000000,-2.959478225
12610000000,-2.960898645
12620000000,-2.962354295
12630000000,-2.963731367
12640000000,-2.965087078
12650000000,-2.966393935
12660000000,-2.967713897
12670000000,-2.968891854
12680000000,-2.970056056
12690000000,-2.971195112
12700000000,-2.972271249
12710000000,-2.973286797
12720000000,-2.974311871
12730000000,-2.975300762
12740000000,-2.976294592
12750000000,-2.977311583
12760000000,-2.978252386
12770000000,-2.979200354
12780000000,-2.980193307
12790000000,-2.981208509
12800000000,-2.982218848
12810000000,-2.983241529
12820000000,-2.984291843
12830000000,-2.985366048
12840000000,-2.986428576
12850000000,-2.987567062
12860000000,-2.988807418
12870000000,-2.990013728
12880000000,-2.991184029
12890000000,-2.992399812
12900000000,-2.993752148
12910000000,-2.995061174
12920000000,-2.996389213
12930000000,-2.997750502
12940000000,-2.999094229
12950000000,-3.000493131
12960000000,-3.001895804
12970000000,-3.00322248
12980000000,-3.004649756
12990000000,-3.006070692
13000000000,-3.007513148
13010000000,-3.008858411
13020000000,-3.010217939
13030000000,-3.011494986
13040000000,-3.012807411
13050000000,-3.014075925
13060000000,-3.015306899
13070000000,-3.016511767
13080000000,-3.017741927
13090000000,-3.018908404
13100000000,-3.020047606
13110000000,-3.021162073
13120000000,-3.022288518
13130000000,-3.023460803
13140000000,-3.024614402
13150000000,-3.025748719
13160000000,-3.026906634
13170000000,-3.028064775
13180000000,-3.029299436
13190000000,-3.030603148
13200000000,-3.031926438
13210000000,-3.033321852
13220000000,-3.034869933
13230000000,-3.036448168
13240000000,-3.038073195
13250000000,-3.039789863
13260000000,-3.041548225
13270000000,-3.043396233
13280000000,-3.045302947
13290000000,-3.047216681
13300000000,-3.049175098
13310000000,-3.051189638
13320000000,-3.053188783
13330000000,-3.055215886
13340000000,-3.05721583
13350000000,-3.059195593
13360000000,-3.061178781
13370000000,-3.063084751
13380000000,-3.064981632
13390000000,-3.066787925
13400000000,-3.068586332
13410000000,-3.0702943
13420000000,-3.071943641
13430000000,-3.07349717
13440000000,-3.075022221
13450000000,-3.076505842
13460000000,-3.077966551
13470000000,-3.079502033
13480000000,-3.080951495
13490000000,-3.082439233
13500000000,-3.083964384
13510000000,-3.085511973
13520000000,-3.087146239
13530000000,-3.088848887
13540000000,-3.090642056
13550000000,-3.092558418
13560000000,-3.094608769
13570000000,-3.096759261
13580000000,-3.09898658
13590000000,-3.101334179
13600000000,-3.103788944
13610000000,-3.106317456
13620000000,-3.10888321
13630000000,-3.11155983
13640000000,-3.114303831
13650000000,-3.117118843
13660000000,-3.119860836
13670000000,-3.122585962
13680000000,-3.12526659
13690000000,-3.127949378
13700000000,-3.130479757
13710000000,-3.132969925
13720000000,-3.135370004
13730000000,-3.137630346
13740000000,-3.139784654
13750000000,-3.141809921
13760000000,-3.143759782
13770000000,-3.145645971
13780000000,-3.147447433
13790000000,-3.14920885
13800000000,-3.151027223
13810000000,-3.152755195
13820000000,-3.154471546
13830000000,-3.156231306
13840000000,-3.157992872
13850000000,-3.159811761
13860000000,-3.161675707
13870000000,-3.163647555
13880000000,-3.165658981
13890000000,-3.167769382
13900000000,-3.170017691
13910000000,-3.172300866
13920000000,-3.174615111
13930000000,-3.177037451
13940000000,-3.179522262
13950000000,-3.181969908
13960000000,-3.184465131
13970000000,-3.186911727
13980000000,-3.189364603
13990000000,-3.191699277
14000000000,-3.193997817
14010000000,-3.196210682
14020000000,-3.198318365
14030000000,-3.200321265
14040000000,-3.202200711
14050000000,-3.203917
14060000000,-3.20552784
14070000000,-3.207003021
14080000000,-3.20842919
14090000000,-3.209783863
14100000000,-3.21101365
14110000000,-3.212226405
14120000000,-3.213394301
14130000000,-3.214459613
14140000000,-3.215551095
14150000000,-3.216619663
14160000000,-3.217738693
14170000000,-3.218884126
14180000000,-3.220131452
14190000000,-3.221382271
14200000000,-3.222710301
14210000000,-3.224054299
14220000000,-3.225454037
14230000000,-3.226982417
14240000000,-3.228541601
14250000000,-3.230152099
14260000000,-3.231885429
14270000000,-3.233555314
14280000000,-3.235287475
14290000000,-3.23701818
14300000000,-3.238802977
14310000000,-3.240576151
14320000000,-3.242297502
14330000000,-3.244025363
14340000000,-3.245693796
14350000000,-3.247324563
14360000000,-3.248802563
14370000000,-3.250238048
14380000000,-3.251654161
14390000000,-3.253001508
14400000000,-3.25432334
14410000000,-3.255488558
14420000000,-3.256680812
14430000000,-3.25786387
14440000000,-3.259003956
14450000000,-3.260174147
14460000000,-3.261280992
14470000000,-3.262449948
14480000000,-3.263611356
14490000000,-3.264755816
14500000000,-3.265945448
14510000000,-3.267209275
14520000000,-3.26848303
14530000000,-3.269801304
14540000000,-3.271210469
14550000000,-3.272680588
14560000000,-3.274156976
14570000000,-3.275702058
14580000000,-3.277374664
14590000000,-3.279048603
14600000000,-3.280796316
14610000000,-3.282588424
14620000000,-3.284461218
14630000000,-3.286333647
14640000000,-3.288318973
14650000000,-3.290297286
14660000000,-3.292298869
14670000000,-3.294314262
14680000000,-3.296325203
14690000000,-3.298300904
14700000000,-3.300288668
14710000000,-3.302221927
14720000000,-3.304118378
14730000000,-3.30597079
14740000000,-3.307785547
14750000000,-3.309659126
14760000000,-3.311490194
14770000000,-3.313262716
14780000000,-3.314937104
14790000000,-3.316603607
14800000000,-3.318221759
14810000000,-3.319848064
14820000000,-3.321450223
14830000000,-3.32306371
14840000000,-3.324632433
14850000000,-3.326263355
14860000000,-3.327882984
14870000000,-3.329541736
14880000000,-3.331237243
14890000000,-3.332904458
14900000000,-3.334620877
14910000000,-3.336368502
14920000000,-3.33822489
14930000000,-3.340172937
14940000000,-3.342098785
14950000000,-3.344150966
14960000000,-3.346229928
14970000000,-3.348326525
14980000000,-3.350491713
14990000000,-3.352720879
15000000000,-3.35500042
15010000000,-3.357225122
15020000000,-3.359549503
15030000000,-3.361799806
15040000000,-3.364085766
15050000000,-3.36633031
15060000000,-3.368523973
15070000000,-3.370571185
15080000000,-3.372618711
15090000000,-3.374586564
15100000000,-3.376467871
15110000000,-3.378306297
15120000000,-3.380061477
15130000000,-3.3817656
15140000000,-3.383315468
15150000000,-3.384830637
15160000000,-3.386258743
15170000000,-3.387652608
15180000000,-3.388938693
15190000000,-3.390230076
15200000000,-3.391528188
15210000000,-3.392724857
15220000000,-3.39396572
15230000000,-3.395281786
15240000000,-3.39661481
15250000000,-3.397976789
15260000000,-3.399327867
15270000000,-3.400775893
15280000000,-3.402313402
15290000000,-3.403950377
15300000000,-3.405676559
15310000000,-3.407480943
15320000000,-3.409330419
15330000000,-3.411312943
15340000000,-3.413314146
15350000000,-3.415255822
15360000000,-3.417265786
15370000000,-3.419315285
15380000000,-3.421333385
15390000000,-3.42324758
15400000000,-3.425157908
15410000000,-3.426991075
15420000000,-3.428772306
15430000000,-3.430392495
15440000000,-3.431908169
15450000000,-3.433378348
15460000000,-3.434702446
15470000000,-3.435911978
15480000000,-3.437021418
15490000000,-3.43802332
15500000000,-3.439027012
15510000000,-3.439938844
15520000000,-3.440782219
15530000000,-3.441674624
15540000000,-3.4425903
15550000000,-3.443511154
15560000000,-3.444502534
15570000000,-3.445607551
15580000000,-3.446784572
15590000000,-3.448076876
15600000000,-3.449435594
15610000000,-3.450893426
15620000000,-3.452449709
15630000000,-3.454085164
15640000000,-3.455781607
15650000000,-3.457579676
15660000000,-3.459506228
15670000000,-3.461455581
15680000000,-3.463367581
15690000000,-3.465405829
15700000000,-3.467401664
15710000000,-3.469300807
15720000000,-3.471241003
15730000000,-3.473087345
15740000000,-3.474920064
15750000000,-3.476603724
15760000000,-3.478167719
15770000000,-3.47968385
15780000000,-3.481018317
15790000000,-3.482256879
15800000000,-3.483383703
15810000000,-3.484522721
15820000000,-3.485561351
15830000000,-3.486593455
15840000000,-3.487669287
15850000000,-3.488752593
15860000000,-3.48988269
15870000000,-3.491047962
15880000000,-3.492284076
15890000000,-3.493598259
15900000000,-3.495069744
15910000000,-3.496640427
15920000000,-3.498310394
15930000000,-3.500082145
15940000000,-3.501959288
15950000000,-3.503928901
15960000000,-3.505985836
15970000000,-3.508092579
15980000000,-3.510339394
15990000000,-3.512527341
16000000000,-3.514690687
16010000000,-3.516897937
16020000000,-3.519027183
16030000000,-3.521101752
16040000000,-3.523208255
16050000000,-3.525204066
16060000000,-3.52714612
16070000000,-3.528926185
16080000000,-3.530594129
16090000000,-3.532185115
16100000000,-3.533673937
16110000000,-3.53508561
16120000000,-3.536439424
16130000000,-3.537712326
16140000000,-3.538962535
16150000000,-3.540176635
16160000000,-3.541389866
16170000000,-3.542541059
16180000000,-3.543729138
16190000000,-3.54493907
16200000000,-3.546261039
16210000000,-3.547612538
16220000000,-3.548922229
16230000000,-3.550337036
16240000000,-3.551756816
16250000000,-3.553184355
16260000000,-3.554646279
16270000000,-3.55611949
16280000000,-3.557623429
16290000000,-3.559099905
16300000000,-3.560531383
16310000000,-3.561970939
16320000000,-3.563436629
16330000000,-3.564836466
16340000000,-3.566224699
16350000000,-3.567604118
16360000000,-3.568984288
16370000000,-3.570286732
16380000000,-3.571608055
16390000000,-3.572900747
16400000000,-3.574230118
16410000000,-3.575431636
16420000000,-3.576652884
16430000000,-3.577909107
16440000000,-3.579138569
16450000000,-3.580361678
16460000000,-3.581550227
16470000000,-3.582775075
16480000000,-3.583957
16490000000,-3.585168212
16500000000,-3.586361995
16510000000,-3.58755336
16520000000,-3.588734533
16530000000,-3.589831599
16540000000,-3.590903702
16550000000,-3.59200227
16560000000,-3.59312203
16570000000,-3.594158487
16580000000,-3.595243607
16590000000,-3.596386166
16600000000,-3.597504766
16610000000,-3.598602192
16620000000,-3.599782505
16630000000,-3.600887124
16640000000,-3.602073867
16650000000,-3.603424389
16660000000,-3.604808605
16670000000,-3.606216596
16680000000,-3.607725861
16690000000,-3.609317936
16700000000,-3.611082962
16710000000,-3.612875389
16720000000,-3.614771331
16730000000,-3.616612684
16740000000,-3.618508185
16750000000,-3.620483258
16760000000,-3.622483025
16770000000,-3.624493473
16780000000,-3.626466442
16790000000,-3.62839064
16800000000,-3.63038326
16810000000,-3.632298168
16820000000,-3.634175353
16830000000,-3.63601429
16840000000,-3.63782485
16850000000,-3.639549601
16860000000,-3.641292616
16870000000,-3.642987532
16880000000,-3.644707293
16890000000,-3.646401789
16900000000,-3.648055548
16910000000,-3.649714418
16920000000,-3.65142034
16930000000,-3.653155448
16940000000,-3.654899502
16950000000,-3.656783908
16960000000,-3.658797522
16970000000,-3.660850802
16980000000,-3.66297796
16990000000,-3.665205664
17000000000,-3.667536647
17010000000,-3.669965951
17020000000,-3.672458821
17030000000,-3.674987541
17040000000,-3.677527917
17050000000,-3.680122879
17060000000,-3.682848413
17070000000,-3.68547939
17080000000,-3.688135043
17090000000,-3.690742232
17100000000,-3.693322128
17110000000,-3.695859958
17120000000,-3.698291539
17130000000,-3.700777204
17140000000,-3.703164417
17150000000,-3.705554453
17160000000,-3.707814966
17170000000,-3.710089631
17180000000,-3.712315171
17190000000,-3.71451253
17200000000,-3.716641362
17210000000,-3.718736158
17220000000,-3.720804838
17230000000,-3.722857639
17240000000,-3.724972499
17250000000,-3.727146961
17260000000,-3.72928155
17270000000,-3.731390315
17280000000,-3.733494153
17290000000,-3.735563214
17300000000,-3.737623325
17310000000,-3.73966956
17320000000,-3.74163066
17330000000,-3.74358074
17340000000,-3.745536533
17350000000,-3.747471154
17360000000,-3.749284292
17370000000,-3.751114244
17380000000,-3.752897321
17390000000,-3.754635686
17400000000,-3.75638052
17410000000,-3.758098004
17420000000,-3.75985394
17430000000,-3.761534312
17440000000,-3.763195917
17450000000,-3.76482047
17460000000,-3.766492789
17470000000,-3.76811883
17480000000,-3.769699204
17490000000,-3.771203096
17500000000,-3.772737613
17510000000,-3.774198386
17520000000,-3.775552994
17530000000,-3.776891864
17540000000,-3.778178028
17550000000,-3.779420068
17560000000,-3.780510563
17570000000,-3.781564473
17580000000,-3.78252824
17590000000,-3.783460843
17600000000,-3.78436934
17610000000,-3.785179888
17620000000,-3.785908554
17630000000,-3.786661125
17640000000,-3.787407476
17650000000,-3.788090059
17660000000,-3.788756114
17670000000,-3.789413248
17680000000,-3.790065265
17690000000,-3.790700638
17700000000,-3.791445366
17710000000,-3.792121297
17720000000,-3.792858258
17730000000,-3.793566465
17740000000,-3.794326324
17750000000,-3.795161949
17760000000,-3.796003324
17770000000,-3.796966731
17780000000,-3.79787085
17790000000,-3.798790946
17800000000,-3.799668621
17810000000,-3.800578341
17820000000,-3.801474372
17830000000,-3.80229354
17840000000,-3.803059661
17850000000,-3.803761231
17860000000,-3.804431402
17870000000,-3.805046256
17880000000,-3.805542879
17890000000,-3.805983455
17900000000,-3.806383462
17910000000,-3.806726741
17920000000,-3.807020374
17930000000,-3.807267949
17940000000,-3.807482733
17950000000,-3.807689136
17960000000,-3.807920732
17970000000,-3.808052859
17980000000,-3.808326787
17990000000,-3.808630976
18000000000,-3.80886972
18010000000,-3.809171534
18020000000,-3.809770582
18030000000,-3.81027933
18040000000,-3.810915318
18050000000,-3.811555414
18060000000,-3.812319743
18070000000,-3.813155005
18080000000,-3.814018094
18090000000,-3.815045443
18100000000,-3.81609071
18110000000,-3.817142135
18120000000,-3.818181304
18130000000,-3.819292016
18140000000,-3.820406422
18150000000,-3.821482515
18160000000,-3.822589506
18170000000,-3.823622896
18180000000,-3.824627045
18190000000,-3.82559991
18200000000,-3.826537088
18210000000,-3.827514294
18220000000,-3.828306236
18230000000,-3.829187119
18240000000,-3.830063765
18250000000,-3.830931689
18260000000,-3.831816308
18270000000,-3.832657155
18280000000,-3.833541328
18290000000,-3.834429683
18300000000,-3.835363532
18310000000,-3.836288283
18320000000,-3.837236409
18330000000,-3.838202721
18340000000,-3.839259145
18350000000,-3.84022859
18360000000,-3.841307098
18370000000,-3.842343396
18380000000,-3.843345413
18390000000,-3.844393
18400000000,-3.845506776
18410000000,-3.846607226
18420000000,-3.847691882
18430000000,-3.848765729
18440000000,-3.849918217
18450000000,-3.851075879
18460000000,-3.852131664
18470000000,-3.853227939
18480000000,-3.854302655
18490000000,-3.85547332
18500000000,-3.85668805
18510000000,-3.857814317
18520000000,-3.858938928
18530000000,-3.86009561
18540000000,-3.861220727
18550000000,-3.862304306
18560000000,-3.863415006
18570000000,-3.864465138
18580000000,-3.865421068
18590000000,-3.866434477
18600000000,-3.867434621
18610000000,-3.868379943
18620000000,-3.869349568
18630000000,-3.870309799
18640000000,-3.871171755
18650000000,-3.872063435
18660000000,-3.873002433
18670000000,-3.873870453
18680000000,-3.874694473
18690000000,-3.875477047
18700000000,-3.876304124
18710000000,-3.877083969
18720000000,-3.877971053
18730000000,-3.87878631
18740000000,-3.879670648
18750000000,-3.880611583
18760000000,-3.881661635
18770000000,-3.882761951
18780000000,-3.883921448
18790000000,-3.885000628
18800000000,-3.886180523
18810000000,-3.887357149
18820000000,-3.888650404
18830000000,-3.889814069
18840000000,-3.891118419
18850000000,-3.8924156
18860000000,-3.893747299
18870000000,-3.895088422
18880000000,-3.896438052
18890000000,-3.897844003
18900000000,-3.899223273
18910000000,-3.900513748
18920000000,-3.901945508
18930000000,-3.903261532
18940000000,-3.904527279
18950000000,-3.905699091
18960000000,-3.906890459
18970000000,-3.908035897
18980000000,-3.909150584
18990000000,-3.910222467
19000000000,-3.91129669
19010000000,-3.912190363
19020000000,-3.913200651
19030000000,-3.914219747
19040000000,-3.915208394
19050000000,-3.916167819
19060000000,-3.917206432
19070000000,-3.918331638
19080000000,-3.919460083
19090000000,-3.9206261
19100000000,-3.921868896
19110000000,-3.923208877
19120000000,-3.924585532
19130000000,-3.926069092
19140000000,-3.927638688
19150000000,-3.929321862
19160000000,-3.931024365
19170000000,-3.932871761
19180000000,-3.93472084
19190000000,-3.936681223
19200000000,-3.938726828
19210000000,-3.940761641
19220000000,-3.942778755
19230000000,-3.944816588
19240000000,-3.946751647
19250000000,-3.948738072
19260000000,-3.950662615
19270000000,-3.95254529
19280000000,-3.954421094
19290000000,-3.956136795
19300000000,-3.957886773
19310000000,-3.959581101
19320000000,-3.961216955
19330000000,-3.962725602
19340000000,-3.964224105
19350000000,-3.965670951
19360000000,-3.967114396
19370000000,-3.968494614
19380000000,-3.969936283
19390000000,-3.971299424
19400000000,-3.972733663
19410000000,-3.974194057
19420000000,-3.975724514
19430000000,-3.977182113
19440000000,-3.978728664
19450000000,-3.98034544
19460000000,-3.982075701
19470000000,-3.983882422
19480000000,-3.985710126
19490000000,-3.98755709
19500000000,-3.9894353
19510000000,-3.991372457
19520000000,-3.993214038
19530000000,-3.995049308
19540000000,-3.996918829
19550000000,-3.998775267
19560000000,-4.000494901
19570000000,-4.002190588
19580000000,-4.003716589
19590000000,-4.005053187
19600000000,-4.006308956
19610000000,-4.007549206
19620000000,-4.00861939
19630000000,-4.009579113
19640000000,-4.010359351
19650000000,-4.011130984
19660000000,-4.01182484
19670000000,-4.012398885
19680000000,-4.012990789
19690000000,-4.013517362
19700000000,-4.014102773
19710000000,-4.01469582
19720000000,-4.015298098
19730000000,-4.016034755
19740000000,-4.016770771
19750000000,-4.017597288
19760000000,-4.018482924
19770000000,-4.019506076
19780000000,-4.020656058
19790000000,-4.02181772
19800000000,-4.023079217
19810000000,-4.024381068
19820000000,-4.025735701
19830000000,-4.027080413
19840000000,-4.028431898
19850000000,-4.029748255
19860000000,-4.031055905
19870000000,-4.032271727
19880000000,-4.03341829
19890000000,-4.034490848
19900000000,-4.035438474
19910000000,-4.03631547
19920000000,-4.037034934
19930000000,-4.03773851
19940000000,-4.038377395
19950000000,-4.038943816
19960000000,-4.039467373
19970000000,-4.03992954
19980000000,-4.040331664
19990000000,-4.040827073
20000000000,-4.041279425
20010000000,-4.041605566
20020000000,-4.042016788
20030000000,-4.042493374
20040000000,-4.043067876
20050000000,-4.04371613
20060000000,-4.044503653
20070000000,-4.045331715
20080000000,-4.046171404
20090000000,-4.047147252
20100000000,-4.048291901
20110000000,-4.049454157
20120000000,-4.050622493
20130000000,-4.0517965
20140000000,-4.053068998
20150000000,-4.054314112
20160000000,-4.055619984
20170000000,-4.056886971
20180000000,-4.058079847
20190000000,-4.05924977
20200000000,-4.060427125
20210000000,-4.061641098
20220000000,-4.06278079
20230000000,-4.063852561
20240000000,-4.064872134
20250000000,-4.065884644
20260000000,-4.066889466
20270000000,-4.067863627
20280000000,-4.068872139
20290000000,-4.06989985
20300000000,-4.07095809
20310000000,-4.071993153
20320000000,-4.073073964
20330000000,-4.07420876
20340000000,-4.075396499
20350000000,-4.076636657
20360000000,-4.077919525
20370000000,-4.079336672
20380000000,-4.080872242
20390000000,-4.082447464
20400000000,-4.084024993
20410000000,-4.085646946
20420000000,-4.087352541
20430000000,-4.088990764
20440000000,-4.090677749
20450000000,-4.092488011
20460000000,-4.094237519
20470000000,-4.096058731
20480000000,-4.097695588
20490000000,-4.099364907
20500000000,-4.101020154
20510000000,-4.102686467
20520000000,-4.104282015
20530000000,-4.105925306
20540000000,-4.107517381
20550000000,-4.109081169
20560000000,-4.110675957
20570000000,-4.112322036
20580000000,-4.113782505
20590000000,-4.115324331
20600000000,-4.116739504
20610000000,-4.118251116
20620000000,-4.119710048
20630000000,-4.1211364
20640000000,-4.122357236
20650000000,-4.1236096
20660000000,-4.124852513
20670000000,-4.126081901
20680000000,-4.127277781
20690000000,-4.128443856
20700000000,-4.129638988
20710000000,-4.13075264
20720000000,-4.131946512
20730000000,-4.132968586
20740000000,-4.134036727
20750000000,-4.135021498
20760000000,-4.136047067
20770000000,-4.13710281
20780000000,-4.138050692
20790000000,-4.139012057
20800000000,-4.140003245
20810000000,-4.140897564
20820000000,-4.141873064
20830000000,-4.142810279
20840000000,-4.143698355
20850000000,-4.14462334
20860000000,-4.145398193
20870000000,-4.146185683
20880000000,-4.14694675
20890000000,-4.147662165
20900000000,-4.148329814
20910000000,-4.148915606
20920000000,-4.149547842
20930000000,-4.150089726
20940000000,-4.150631682
20950000000,-4.151102808
20960000000,-4.151510413
20970000000,-4.15186919
20980000000,-4.15217825
20990000000,-4.152289726
21000000000,-4.152638013
21010000000,-4.152821184
21020000000,-4.152950832
21030000000,-4.153087411
21040000000,-4.153224182
21050000000,-4.153317549
21060000000,-4.153350759
21070000000,-4.153462067
21080000000,-4.153544229
21090000000,-4.153607167
21100000000,-4.153755056
21110000000,-4.153856823
21120000000,-4.154127862
21130000000,-4.154297545
21140000000,-4.154470547
21150000000,-4.154741295
21160000000,-4.15496748
21170000000,-4.155218145
21180000000,-4.155465194
21190000000,-4.155679522
21200000000,-4.155956802
21210000000,-4.156236036
21220000000,-4.156384059
21230000000,-4.156569992
21240000000,-4.156701043
21250000000,-4.156771804
21260000000,-4.156822696
21270000000,-4.156889311
21280000000,-4.157014923
21290000000,-4.157092449
21300000000,-4.157132789
21310000000,-4.157283015
21320000000,-4.157520979
21330000000,-4.157644562
21340000000,-4.157774586
21350000000,-4.157885066
21360000000,-4.158143865
21370000000,-4.158435534
21380000000,-4.158825401
21390000000,-4.159286501
21400000000,-4.159784517
21410000000,-4.160413288
21420000000,-4.161149432
21430000000,-4.161915162
21440000000,-4.162801249
21450000000,-4.163653551
21460000000,-4.164657339
21470000000,-4.165723254
21480000000,-4.166810119
21490000000,-4.167969978
21500000000,-4.16923865
21510000000,-4.17056754
21520000000,-4.17196203
21530000000,-4.173329568
21540000000,-4.174766755
21550000000,-4.176223091
21560000000,-4.177673918
21570000000,-4.179171749
21580000000,-4.180752734
21590000000,-4.18220962
21600000000,-4.18368683
21610000000,-4.185189557
21620000000,-4.186644084
21630000000,-4.188263983
21640000000,-4.189875716
21650000000,-4.19153084
21660000000,-4.193268146
21670000000,-4.194941692
21680000000,-4.196766791
21690000000,-4.198570859
21700000000,-4.200498185
21710000000,-4.20248588
21720000000,-4.204400871
21730000000,-4.206460814
21740000000,-4.208544194
21750000000,-4.210703183
21760000000,-4.212916105
21770000000,-4.215181505
21780000000,-4.217541214
21790000000,-4.219889521
21800000000,-4.22225321
21810000000,-4.224638549
21820000000,-4.227037314
21830000000,-4.229395704
21840000000,-4.231762673
21850000000,-4.234011848
21860000000,-4.236340871
21870000000,-4.238615882
21880000000,-4.240854283
21890000000,-4.243086725
21900000000,-4.245244346
21910000000,-4.247461547
21920000000,-4.249638713
21930000000,-4.2517713
21940000000,-4.253940391
21950000000,-4.256043148
21960000000,-4.258123337
21970000000,-4.260317855
21980000000,-4.262421003
21990000000,-4.264566667
22000000000,-4.266751785
22010000000,-4.269000716
22020000000,-4.271193185
22030000000,-4.273424679
22040000000,-4.275658045
22050000000,-4.277902361
22060000000,-4.280233202
22070000000,-4.282634292
22080000000,-4.284967105
22090000000,-4.28724061
22100000000,-4.289598106
22110000000,-4.291991047
22120000000,-4.294334093
22130000000,-4.296601359
22140000000,-4.298896215
22150000000,-4.301241624
22160000000,-4.303390993
22170000000,-4.30551023
22180000000,-4.307611412
22190000000,-4.309644045
22200000000,-4.31162853
22210000000,-4.313487404
22220000000,-4.315330709
22230000000,-4.317242741
22240000000,-4.319039794
22250000000,-4.320752928
22260000000,-4.322464897
22270000000,-4.324165081
22280000000,-4.32585541
22290000000,-4.327482235
22300000000,-4.329200808
22310000000,-4.330878535
22320000000,-4.332537623
22330000000,-4.334273927
22340000000,-4.335984893
22350000000,-4.337733225
22360000000,-4.339382411
22370000000,-4.340962663
22380000000,-4.342561873
22390000000,-4.34421389
22400000000,-4.345812688
22410000000,-4.347333246
22420000000,-4.348880187
22430000000,-4.35041582
22440000000,-4.351916524
22450000000,-4.353455861
22460000000,-4.354881968
22470000000,-4.35645885
22480000000,-4.357938338
22490000000,-4.359503362
22500000000,-4.361085799
22510000000,-4.362666921
22520000000,-4.364226797
22530000000,-4.36579298
22540000000,-4.367455889
22550000000,-4.369078455
22560000000,-4.370694628
22570000000,-4.372413631
22580000000,-4.374010939
22590000000,-4.375740696
22600000000,-4.377431945
22610000000,-4.379037019
22620000000,-4.380591657
22630000000,-4.382306758
22640000000,-4.383978235
22650000000,-4.385646733
22660000000,-4.387320098
22670000000,-4.388936541
22680000000,-4.390434494
22690000000,-4.391875617
22700000000,-4.393454854
22710000000,-4.394923322
22720000000,-4.396494571
22730000000,-4.39804681
22740000000,-4.39963382
22750000000,-4.401134255
22760000000,-4.402631449
22770000000,-4.404277783
22780000000,-4.405870116
22790000000,-4.407595881
22800000000,-4.409365847
22810000000,-4.41114891
22820000000,-4.412995484
22830000000,-4.41495012
22840000000,-4.41680457
22850000000,-4.418809851
22860000000,-4.420765437
22870000000,-4.422641072
22880000000,-4.42450305
22890000000,-4.426490057
22900000000,-4.428438306
22910000000,-4.430343826
22920000000,-4.432153926
22930000000,-4.433859408
22940000000,-4.435569945
22950000000,-4.437261817
22960000000,-4.438903426
22970000000,-4.440564743
22980000000,-4.442271218
22990000000,-4.443936543
23000000000,-4.445652196
23010000000,-4.447260859
23020000000,-4.449077325
23030000000,-4.450851355
23040000000,-4.452689391
23050000000,-4.454602159
23060000000,-4.456572061
23070000000,-4.458506095
23080000000,-4.460678854
23090000000,-4.462784386
23100000000,-4.464977002
23110000000,-4.467030113
23120000000,-4.469136139
23130000000,-4.471339042
23140000000,-4.473555148
23150000000,-4.475691782
23160000000,-4.477857049
23170000000,-4.480022181
23180000000,-4.482125707
23190000000,-4.484190943
23200000000,-4.486273828
23210000000,-4.488429995
23220000000,-4.490539812
23230000000,-4.492590087
23240000000,-4.494682467
23250000000,-4.496785672
23260000000,-4.498837699
23270000000,-4.500877385
23280000000,-4.50299365
23290000000,-4.505194793
23300000000,-4.507314927
23310000000,-4.509615658
23320000000,-4.512017644
23330000000,-4.514529384
23340000000,-4.517187118
23350000000,-4.519924375
23360000000,-4.522717447
23370000000,-4.525565043
23380000000,-4.528427393
23390000000,-4.53132533
23400000000,-4.5340957
23410000000,-4.536933452
23420000000,-4.539823086
23430000000,-4.542668253
23440000000,-4.545610245
23450000000,-4.548440558
23460000000,-4.551221102
23470000000,-4.554023143
23480000000,-4.556792519
23490000000,-4.559502181
23500000000,-4.56215496
23510000000,-4.564772662
23520000000,-4.567434204
23530000000,-4.569940745
23540000000,-4.572529012
23550000000,-4.575059775
23560000000,-4.577759677
23570000000,-4.580423266
23580000000,-4.583314905
23590000000,-4.586134151
23600000000,-4.589063848
23610000000,-4.592075852
23620000000,-4.594946208
23630000000,-4.598045844
23640000000,-4.601162079
23650000000,-4.604297677
23660000000,-4.607512428
23670000000,-4.610754297
23680000000,-4.613968718
23690000000,-4.617216133
23700000000,-4.620520888
23710000000,-4.62388278
23720000000,-4.627181323
23730000000,-4.63037515
23740000000,-4.633454664
23750000000,-4.636566037
23760000000,-4.639586529
23770000000,-4.642479716
23780000000,-4.645395039
23790000000,-4.64817142
23800000000,-4.650904653
23810000000,-4.653588757
23820000000,-4.656234424
23830000000,-4.658951187
23840000000,-4.661698835
23850000000,-4.664364642
23860000000,-4.667017999
23870000000,-4.669705029
23880000000,-4.672453502
23890000000,-4.675229871
23900000000,-4.678116309
23910000000,-4.680983315
23920000000,-4.683992497
23930000000,-4.686974212
23940000000,-4.690034701
23950000000,-4.693133729
23960000000,-4.696209608
23970000000,-4.699336731
23980000000,-4.70252662
23990000000,-4.705545812
24000000000,-4.708546196
24010000000,-4.711592412
24020000000,-4.714668526
24030000000,-4.717475171
24040000000,-4.720228991
24050000000,-4.722807068
24060000000,-4.725239231
24070000000,-4.727623941
24080000000,-4.729922486
24090000000,-4.732122914
24100000000,-4.734172494
24110000000,-4.736195359
24120000000,-4.738089389
24130000000,-4.739969424
24140000000,-4.741715027
24150000000,-4.743640071
24160000000,-4.745639345
24170000000,-4.747602363
24180000000,-4.749574966
24190000000,-4.751555907
24200000000,-4.753616401
24210000000,-4.755741378
24220000000,-4.757789675
24230000000,-4.759921421
24240000000,-4.76212182
24250000000,-4.764296714
24260000000,-4.766530668
24270000000,-4.768710734
24280000000,-4.77091646
24290000000,-4.773094252
24300000000,-4.775196516
24310000000,-4.777204434
24320000000,-4.779213601
24330000000,-4.781115562
24340000000,-4.782982492
24350000000,-4.784758048
24360000000,-4.786477473
24370000000,-4.788118802
24380000000,-4.78966055
24390000000,-4.79121594
24400000000,-4.792707752
24410000000,-4.794162665
24420000000,-4.79557222
24430000000,-4.796938196
24440000000,-4.7983301
24450000000,-4.799720591
24460000000,-4.801030405
24470000000,-4.802385855
24480000000,-4.803675148
24490000000,-4.804982582
24500000000,-4.806410862
24510000000,-4.807790088
24520000000,-4.809202777
24530000000,-4.810532109
24540000000,-4.811911267
24550000000,-4.81334869
24560000000,-4.814729089
24570000000,-4.81609715
24580000000,-4.817505105
24590000000,-4.818857154
24600000000,-4.820225149
24610000000,-4.821768644
24620000000,-4.823189213
24630000000,-4.824552864
24640000000,-4.826026209
24650000000,-4.827556132
24660000000,-4.829091878
24670000000,-4.830655366
24680000000,-4.83228128
24690000000,-4.833924207
24700000000,-4.835624919
24710000000,-4.837354292
24720000000,-4.839010741
24730000000,-4.840745594
24740000000,-4.84262791
24750000000,-4.844538883
24760000000,-4.846331432
24770000000,-4.84821532
24780000000,-4.850037556
24790000000,-4.851803454
24800000000,-4.853690589
24810000000,-4.855443751
24820000000,-4.857150192
24830000000,-4.858973674
24840000000,-4.860747589
24850000000,-4.86246682
24860000000,-4.864266735
24870000000,-4.866152387
24880000000,-4.867882315
24890000000,-4.869657339
24900000000,-4.871423183
24910000000,-4.873373156
24920000000,-4.8754055
24930000000,-4.877446709
24940000000,-4.879604994
24950000000,-4.881848725
24960000000,-4.884127336
24970000000,-4.886586406
24980000000,-4.889073433
24990000000,-4.89164126
25000000000,-4.894454704
25010000000,-4.897160176
25020000000,-4.900046838
25030000000,-4.903028059
25040000000,-4.905952974
25050000000,-4.908885249
25060000000,-4.91193268
25070000000,-4.914815748
25080000000,-4.917700338
25090000000,-4.920533519
25100000000,-4.923365153
25110000000,-4.926189503
25120000000,-4.928868448
25130000000,-4.931439878
25140000000,-4.933960777
25150000000,-4.936340057
25160000000,-4.93862666
25170000000,-4.940860893
25180000000,-4.942982456
25190000000,-4.945064612
25200000000,-4.947085145
25210000000,-4.949136357
25220000000,-4.951301939
25230000000,-4.95351942
25240000000,-4.955878962
25250000000,-4.958229638
25260000000,-4.96070045
25270000000,-4.963291832
25280000000,-4.965940377
25290000000,-4.968767678
25300000000,-4.971572087
25310000000,-4.974600211
25320000000,-4.977679623
25330000000,-4.980722201
25340000000,-4.983873023
25350000000,-4.986938206
25360000000,-4.990084347
25370000000,-4.993113552
25380000000,-4.996137106
25390000000,-4.999174851
25400000000,-5.00209315
25410000000,-5.004951895
25420000000,-5.007653124
25430000000,-5.010136259
25440000000,-5.012540269
25450000000,-5.01477266
25460000000,-5.016800086
25470000000,-5.018641709
25480000000,-5.02036771
25490000000,-5.022026176
25500000000,-5.023535939
25510000000,-5.024711562
25520000000,-5.026203483
25530000000,-5.027601591
25540000000,-5.029114211
25550000000,-5.03054153
25560000000,-5.032181266
25570000000,-5.033865559
25580000000,-5.035696264
25590000000,-5.037666689
25600000000,-5.039670487
25610000000,-5.042097538
25620000000,-5.044362739
25630000000,-5.046926962
25640000000,-5.049470093
25650000000,-5.052199645
25660000000,-5.054942247
25670000000,-5.057828303
25680000000,-5.060663638
25690000000,-5.06348387
25700000000,-5.066259836
25710000000,-5.069038347
25720000000,-5.07175113
25730000000,-5.074279759
25740000000,-5.076661344
25750000000,-5.078980532
25760000000,-5.081106593
25770000000,-5.083017238
25780000000,-5.084893643
25790000000,-5.086429897
25800000000,-5.087705718
25810000000,-5.089191663
25820000000,-5.090699766
25830000000,-5.091977515
25840000000,-5.093318801
25850000000,-5.094806508
25860000000,-5.096297491
25870000000,-5.097902472
25880000000,-5.09967177
25890000000,-5.101457993
25900000000,-5.103339466
25910000000,-5.105223203
25920000000,-5.107237084
25930000000,-5.109522674
25940000000,-5.111930053
25950000000,-5.114550123
25960000000,-5.117130538
25970000000,-5.119786393
25980000000,-5.122533855
25990000000,-5.125211396
26000000000,-5.127838531
26010000000,-5.13041784
26020000000,-5.133123262
26030000000,-5.135611498
26040000000,-5.138084227
26050000000,-5.140545336
26060000000,-5.142915948
26070000000,-5.145154749
26080000000,-5.147169609
26090000000,-5.149156167
26100000000,-5.1510392
26110000000,-5.152986084
26120000000,-5.154835691
26130000000,-5.156639495
26140000000,-5.158332289
26150000000,-5.159810144
26160000000,-5.161303611
26170000000,-5.162775334
26180000000,-5.164426453
26190000000,-5.166004145
26200000000,-5.167627252
26210000000,-5.16934452
26220000000,-5.171060833
26230000000,-5.172996187
26240000000,-5.175116155
26250000000,-5.177257617
26260000000,-5.179456349
26270000000,-5.181657123
26280000000,-5.183851292
26290000000,-5.186078047
26300000000,-5.188453816
26310000000,-5.19077471
26320000000,-5.193180064
26330000000,-5.195449567
26340000000,-5.197820293
26350000000,-5.200305039
26360000000,-5.202584126
26370000000,-5.205077316
26380000000,-5.207373104
26390000000,-5.20971982
26400000000,-5.212033709
26410000000,-5.214226157
26420000000,-5.216335318
26430000000,-5.218564443
26440000000,-5.220595651
26450000000,-5.222709269
26460000000,-5.224776656
26470000000,-5.226810247
26480000000,-5.228695535
26490000000,-5.23070766
26500000000,-5.232497241
26510000000,-5.234489685
26520000000,-5.236448326
26530000000,-5.238362664
26540000000,-5.240131126
26550000000,-5.242047155
26560000000,-5.24411135
26570000000,-5.246068327
26580000000,-5.248094884
26590000000,-5.250018526
26600000000,-5.252083506
26610000000,-5.254138664
26620000000,-5.256433758
26630000000,-5.25881288
26640000000,-5.260938047
26650000000,-5.263265099
26660000000,-5.265744075
26670000000,-5.268381888
26680000000,-5.270929751
26690000000,-5.273758205
26700000000,-5.276459279
26710000000,-5.279435034
26720000000,-5.282456103
26730000000,-5.285270583
26740000000,-5.288312535
26750000000,-5.291366361
26760000000,-5.294531233
26770000000,-5.297606647
26780000000,-5.300644835
26790000000,-5.303542068
26800000000,-5.306722929
26810000000,-5.309683254
26820000000,-5.312684871
26830000000,-5.315540147
26840000000,-5.318416936
26850000000,-5.321123996
26860000000,-5.323750184
26870000000,-5.326469835
26880000000,-5.329000096
26890000000,-5.33156415
26900000000,-5.334098227
26910000000,-5.336686418
26920000000,-5.339249274
26930000000,-5.341895517
26940000000,-5.34466802
26950000000,-5.347562553
26960000000,-5.350471901
26970000000,-5.353565767
26980000000,-5.356752621
26990000000,-5.36027288
27000000000,-5.364006664
27010000000,-5.3677723
27020000000,-5.371605177
27030000000,-5.375565485
27040000000,-5.379607915
27050000000,-5.383765476
27060000000,-5.387839196
27070000000,-5.392016907
27080000000,-5.396110683
27090000000,-5.400108938
27100000000,-5.404231331
27110000000,-5.407889316
27120000000,-5.411717001
27130000000,-5.415471498
27140000000,-5.419101264
27150000000,-5.422637359
27160000000,-5.426066122
27170000000,-5.429388959
27180000000,-5.432722541
27190000000,-5.435879634
27200000000,-5.43922739
27210000000,-5.442352021
27220000000,-5.445565332
27230000000,-5.448453198
27240000000,-5.451560034
27250000000,-5.454892101
27260000000,-5.45806002
27270000000,-5.461315508
27280000000,-5.464760528
27290000000,-5.468267689
27300000000,-5.471762108
27310000000,-5.475463333
27320000000,-5.47928029
27330000000,-5.483100656
27340000000,-5.487102558
27350000000,-5.491015586
27360000000,-5.495328071
27370000000,-5.499409703
27380000000,-5.503641374
27390000000,-5.507859303
27400000000,-5.511956777
27410000000,-5.516096842
27420000000,-5.520187211
27430000000,-5.524018885
27440000000,-5.527872044
27450000000,-5.531782675
27460000000,-5.535502172
27470000000,-5.53908955
27480000000,-5.542405507
27490000000,-5.545681296
27500000000,-5.549051819
27510000000,-5.552227654
27520000000,-5.555186317
27530000000,-5.557934623
27540000000,-5.560766574
27550000000,-5.563523263
27560000000,-5.566228347
27570000000,-5.568981241
27580000000,-5.5716518
27590000000,-5.574475489
27600000000,-5.577196783
27610000000,-5.579866047
27620000000,-5.58265315
27630000000,-5.585432842
27640000000,-5.588146314
27650000000,-5.590965092
27660000000,-5.593785681
27670000000,-5.596598636
27680000000,-5.599419069
27690000000,-5.602224212
27700000000,-5.604897237
27710000000,-5.607683333
27720000000,-5.610504584
27730000000,-5.613221401
27740000000,-5.615785134
27750000000,-5.61844382
27760000000,-5.620925223
27770000000,-5.623496452
27780000000,-5.626155256
27790000000,-5.628827318
27800000000,-5.631057962
27810000000,-5.633038084
27820000000,-5.635138671
27830000000,-5.637147229
27840000000,-5.639033555
27850000000,-5.640745449
27860000000,-5.642479273
27870000000,-5.644059437
27880000000,-5.645505342
27890000000,-5.646946199
27900000000,-5.648386632
27910000000,-5.64988098
27920000000,-5.651281499
27930000000,-5.65250192
27940000000,-5.653671697
27950000000,-5.654862346
27960000000,-5.655901658
27970000000,-5.657025768
27980000000,-5.658268313
27990000000,-5.659366484
28000000000,-5.660460136
28010000000,-5.661679203
28020000000,-5.663091861
28030000000,-5.664665933
28040000000,-5.666005172
28050000000,-5.667306445
28060000000,-5.668717473
28070000000,-5.670225749
28080000000,-5.671752808
28090000000,-5.673271743
28100000000,-5.674764958
28110000000,-5.676361789
28120000000,-5.677982012
28130000000,-5.67945379
28140000000,-5.681058393
28150000000,-5.682457874
28160000000,-5.684007803
28170000000,-5.685249308
28180000000,-5.686658977
28190000000,-5.688150716
28200000000,-5.689479909
28210000000,-5.690814885
28220000000,-5.691907817
28230000000,-5.692949502
28240000000,-5.693898413
28250000000,-5.694900533
28260000000,-5.695949109
28270000000,-5.696981904
28280000000,-5.698193006
28290000000,-5.69928398
28300000000,-5.700592009
28310000000,-5.701778239
28320000000,-5.703129281
28330000000,-5.704617617
28340000000,-5.706166333
28350000000,-5.707820065
28360000000,-5.709323825
28370000000,-5.711140641
28380000000,-5.712952161
28390000000,-5.714894077
28400000000,-5.716872051
28410000000,-5.719097126
28420000000,-5.721044806
28430000000,-5.723316547
28440000000,-5.725664653
28450000000,-5.727998109
28460000000,-5.730502228
28470000000,-5.732951366
28480000000,-5.735312732
28490000000,-5.737824181
28500000000,-5.740227717
28510000000,-5.742702655
28520000000,-5.745295888
28530000000,-5.748014893
28540000000,-5.750473868
28550000000,-5.752994687
28560000000,-5.755521869
28570000000,-5.758117023
28580000000,-5.76105087
28590000000,-5.763756514
28600000000,-5.766535655
28610000000,-5.769154186
28620000000,-5.771805462
28630000000,-5.774580906
28640000000,-5.777304125
28650000000,-5.780254048
28660000000,-5.783148483
28670000000,-5.786368725
28680000000,-5.789541803
28690000000,-5.792966535
28700000000,-5.796362117
28710000000,-5.799664155
28720000000,-5.803102405
28730000000,-5.806477205
28740000000,-5.8097209
28750000000,-5.813034607
28760000000,-5.816560996
28770000000,-5.820180829
28780000000,-5.823938623
28790000000,-5.827271092
28800000000,-5.830918556
28810000000,-5.834305339
28820000000,-5.83793814
28830000000,-5.841744046
28840000000,-5.845489425
28850000000,-5.849263183
28860000000,-5.852962495
28870000000,-5.857008882
28880000000,-5.860890983
28890000000,-5.864791481
28900000000,-5.868785345
28910000000,-5.872734399
28920000000,-5.876790975
28930000000,-5.880888976
28940000000,-5.884910886
28950000000,-5.889034451
28960000000,-5.892788811
28970000000,-5.896511531
28980000000,-5.90017333
28990000000,-5.90361416
29000000000,-5.906919078
29010000000,-5.910300064
29020000000,-5.913646072
29030000000,-5.916783102
29040000000,-5.91990636
29050000000,-5.923074735
29060000000,-5.926043202
29070000000,-5.929112076
29080000000,-5.932175211
29090000000,-5.934987693
29100000000,-5.93838779
29110000000,-5.941439115
29120000000,-5.944648519
29130000000,-5.947962617
29140000000,-5.951413071
29150000000,-5.954832628
29160000000,-5.958278005
29170000000,-5.961804016
29180000000,-5.965647085
29190000000,-5.96913788
29200000000,-5.972677455
29210000000,-5.976247094
29220000000,-5.980081131
29230000000,-5.983589504
29240000000,-5.986906011
29250000000,-5.990354685
29260000000,-5.993393967
29270000000,-5.996196727
29280000000,-5.999001036
29290000000,-6.001524492
29300000000,-6.003815024
29310000000,-6.00584114
29320000000,-6.007781404
29330000000,-6.009446807
29340000000,-6.011050723
29350000000,-6.012435759
29360000000,-6.013943116
29370000000,-6.015205957
29380000000,-6.016496493
29390000000,-6.017738595
29400000000,-6.018808998
29410000000,-6.019986506
29420000000,-6.021163312
29430000000,-6.022602149
29440000000,-6.024078191
29450000000,-6.025568198
29460000000,-6.02724956
29470000000,-6.028983011
29480000000,-6.030998558
29490000000,-6.032795246
29500000000,-6.034604206
29510000000,-6.036523671
29520000000,-6.038635112
29530000000,-6.040792981
29540000000,-6.042680793
29550000000,-6.044520825
29560000000,-6.046088036
29570000000,-6.047693398
29580000000,-6.048968325
29590000000,-6.050108213
29600000000,-6.051119022
29610000000,-6.051774068
29620000000,-6.052338204
29630000000,-6.052708364
29640000000,-6.052783268
29650000000,-6.05268955
29660000000,-6.052658074
29670000000,-6.05233669
29680000000,-6.051947296
29690000000,-6.051548758
29700000000,-6.0509158
29710000000,-6.050352522
29720000000,-6.049767974
29730000000,-6.049249728
29740000000,-6.04876382
29750000000,-6.048591343
29760000000,-6.048303013
29770000000,-6.048267692
29780000000,-6.048346672
29790000000,-6.048652271
29800000000,-6.049087482
29810000000,-6.049428481
29820000000,-6.049738452
29830000000,-6.050089184
29840000000,-6.050651409
29850000000,-6.051030871
29860000000,-6.051516152
29870000000,-6.052020901
29880000000,-6.052504194
29890000000,-6.052807514
29900000000,-6.053005858
29910000000,-6.053008776
29920000000,-6.053043095
29930000000,-6.052954757
29940000000,-6.052829466
29950000000,-6.052794306
29960000000,-6.052465183
29970000000,-6.05221647
29980000000,-6.052003624
29990000000,-6.051742389
30000000000,-6.051532239
30010000000,-6.051107115
30020000000,-6.050813032
30030000000,-6.05058759
30040000000,-6.050492887
30050000000,-6.05044612
30060000000,-6.050537129
30070000000,-6.050603921
30080000000,-6.050981236
30090000000,-6.051365644
30100000000,-6.051654823
30110000000,-6.052098345
30120000000,-6.052748459
30130000000,-6.053638483
30140000000,-6.054614158
30150000000,-6.055617669
30160000000,-6.056790868
30170000000,-6.057726916
30180000000,-6.058657951
30190000000,-6.059650653
30200000000,-6.06065799
30210000000,-6.061787009
30220000000,-6.062871902
30230000000,-6.064167525
30240000000,-6.065387894
30250000000,-6.066556043
30260000000,-6.067884326
30270000000,-6.069173294
30280000000,-6.070635431
30290000000,-6.071863891
30300000000,-6.073357268
30310000000,-6.075031156
30320000000,-6.076677398
30330000000,-6.078366843
30340000000,-6.080108053
30350000000,-6.08185313
30360000000,-6.083578026
30370000000,-6.085584143
30380000000,-6.087603203
30390000000,-6.089590166
30400000000,-6.091483527
30410000000,-6.093473485
30420000000,-6.095318045
30430000000,-6.097183096
30440000000,-6.099071776
30450000000,-6.100710971
30460000000,-6.10252724
30470000000,-6.104362141
30480000000,-6.106133643
30490000000,-6.107875318
30500000000,-6.109676577
30510000000,-6.111423816
30520000000,-6.113097868
30530000000,-6.11497237
30540000000,-6.116940193
30550000000,-6.119113298
30560000000,-6.121257051
30570000000,-6.12361887
30580000000,-6.126028662
30590000000,-6.128591163
30600000000,-6.131241788
30610000000,-6.134083486
30620000000,-6.137151765
30630000000,-6.140017002
30640000000,-6.142967915
30650000000,-6.145764674
30660000000,-6.148456723
30670000000,-6.150790073
30680000000,-6.152850464
30690000000,-6.155021147
30700000000,-6.157140637
30710000000,-6.159144258
30720000000,-6.160824555
30730000000,-6.162661688
30740000000,-6.164266604
30750000000,-6.165609497
30760000000,-6.166968439
30770000000,-6.167991158
30780000000,-6.169393044
30790000000,-6.170579025
30800000000,-6.172003016
30810000000,-6.173249125
30820000000,-6.174480999
30830000000,-6.175980276
30840000000,-6.177492427
30850000000,-6.179161881
30860000000,-6.180867182
30870000000,-6.182919477
30880000000,-6.1851105
30890000000,-6.187355544
30900000000,-6.189823254
30910000000,-6.19213167
30920000000,-6.194517818
30930000000,-6.196797246
30940000000,-6.199098149
30950000000,-6.201720553
30960000000,-6.204218381
30970000000,-6.206290611
30980000000,-6.208417503
30990000000,-6.210481356
31000000000,-6.212387492
31010000000,-6.213851137
31020000000,-6.215493952
31030000000,-6.216945111
31040000000,-6.218215108
31050000000,-6.219326252
31060000000,-6.220199805
31070000000,-6.221022919
31080000000,-6.221902668
31090000000,-6.222610686
31100000000,-6.223213975
31110000000,-6.223891683
31120000000,-6.224249706
31130000000,-6.224534962
31140000000,-6.224926596
31150000000,-6.225491809
31160000000,-6.226030632
31170000000,-6.226567862
31180000000,-6.227259122
31190000000,-6.228004135
31200000000,-6.22887047
31210000000,-6.229653186
31220000000,-6.230586443
31230000000,-6.231548825
31240000000,-6.232459377
31250000000,-6.233599046
31260000000,-6.234862228
31270000000,-6.235979835
31280000000,-6.237220499
31290000000,-6.23836275
31300000000,-6.239432098
31310000000,-6.240354851
31320000000,-6.241050883
31330000000,-6.241554727
31340000000,-6.241696668
31350000000,-6.241924169
31360000000,-6.241931049
31370000000,-6.241751465
31380000000,-6.241372971
31390000000,-6.24119125
31400000000,-6.240913776
31410000000,-6.240592731
31420000000,-6.23998278
31430000000,-6.239359006
31440000000,-6.238954812
31450000000,-6.238602208
31460000000,-6.2385329
31470000000,-6.238249647
31480000000,-6.238455057
31490000000,-6.238631837
31500000000,-6.238874749
31510000000,-6.239240871
31520000000,-6.239409492
31530000000,-6.239815396
31540000000,-6.240400474
31550000000,-6.241028846
31560000000,-6.241513145
31570000000,-6.24215899
31580000000,-6.242584724
31590000000,-6.243142885
31600000000,-6.243430505
31610000000,-6.243904451
31620000000,-6.244322077
31630000000,-6.244753127
31640000000,-6.24514718
31650000000,-6.24505666
31660000000,-6.245289954
31670000000,-6.245274532
31680000000,-6.245402663
31690000000,-6.245493988
31700000000,-6.245522549
31710000000,-6.245750058
31720000000,-6.24614047
31730000000,-6.246694805
31740000000,-6.246938638
31750000000,-6.247354312
31760000000,-6.247737089
31770000000,-6.248292023
31780000000,-6.248876129
31790000000,-6.249420491
31800000000,-6.250355945
31810000000,-6.251225841
31820000000,-6.252225743
31830000000,-6.253068517
31840000000,-6.254054654
31850000000,-6.255050637
31860000000,-6.256079367
31870000000,-6.256979572
31880000000,-6.257947168
31890000000,-6.258822952
31900000000,-6.25980662
31910000000,-6.260708926
31920000000,-6.261671876
31930000000,-6.262552402
31940000000,-6.263505262
31950000000,-6.264752084
31960000000,-6.265853807
31970000000,-6.267025203
31980000000,-6.268167839
31990000000,-6.269440984
32000000000,-6.270816982
32010000000,-6.272151838
32020000000,-6.273799648
32030000000,-6.275596667
32040000000,-6.277426395
32050000000,-6.279315302
32060000000,-6.281376898
32070000000,-6.283269278
32080000000,-6.285276772
32090000000,-6.287528251
32100000000,-6.289616368
32110000000,-6.291866588
32120000000,-6.293825507
32130000000,-6.295898645
32140000000,-6.297816035
32150000000,-6.299500855
32160000000,-6.301435418
32170000000,-6.303289939
32180000000,-6.305364818
32190000000,-6.307249157
32200000000,-6.309227819
32210000000,-6.311194001
32220000000,-6.312779592
32230000000,-6.314569945
32240000000,-6.316209605
32250000000,-6.317928519
32260000000,-6.319627632
32270000000,-6.321076916
32280000000,-6.323099406
32290000000,-6.325048067
32300000000,-6.326829851
32310000000,-6.328656001
32320000000,-6.330512553
32330000000,-6.332490083
32340000000,-6.334676795
32350000000,-6.336888407
32360000000,-6.338967748
32370000000,-6.341075472
32380000000,-6.3432991
32390000000,-6.345605172
32400000000,-6.347909457
32410000000,-6.350126345
32420000000,-6.352341404
32430000000,-6.354406439
32440000000,-6.356652804
32450000000,-6.358879017
32460000000,-6.360747471
32470000000,-6.362627799
32480000000,-6.364493056
32490000000,-6.36634796
32500000000,-6.368018036
32510000000,-6.369706835
32520000000,-6.371341327
32530000000,-6.372792689
32540000000,-6.37414398
32550000000,-6.375383094
32560000000,-6.376307431
32570000000,-6.377228118
32580000000,-6.377903928
32590000000,-6.378878364
32600000000,-6.379563108
32610000000,-6.380151023
32620000000,-6.381025794
32630000000,-6.381792085
32640000000,-6.382589714
32650000000,-6.383435405
32660000000,-6.384538778
32670000000,-6.385729911
32680000000,-6.386498093
32690000000,-6.387422271
32700000000,-6.388361943
32710000000,-6.389463929
32720000000,-6.390566493
32730000000,-6.391748235
32740000000,-6.392818796
32750000000,-6.39371187
32760000000,-6.394937415
32770000000,-6.395575863
32780000000,-6.396521195
32790000000,-6.39718735
32800000000,-6.397892061
32810000000,-6.398346246
32820000000,-6.398807078
32830000000,-6.399163311
32840000000,-6.399316231
32850000000,-6.3993848
32860000000,-6.39919862
32870000000,-6.399021783
32880000000,-6.398382718
32890000000,-6.397624438
32900000000,-6.397085095
32910000000,-6.396343258
32920000000,-6.395883272
32930000000,-6.395432595
32940000000,-6.394734892
32950000000,-6.394090903
32960000000,-6.393384135
32970000000,-6.392570507
32980000000,-6.391866597
32990000000,-6.391101046
33000000000,-6.39051727
33010000000,-6.389933501
33020000000,-6.389115162
33030000000,-6.388658608
33040000000,-6.38845385
33050000000,-6.388280925
33060000000,-6.388205169
33070000000,-6.387900589
33080000000,-6.387723376
33090000000,-6.387882698
33100000000,-6.387680512
33110000000,-6.387989981
33120000000,-6.38823198
33130000000,-6.388560141
33140000000,-6.388781409
33150000000,-6.389060708
33160000000,-6.389144618
33170000000,-6.389102471
33180000000,-6.389286842
33190000000,-6.389232737
33200000000,-6.389200378
33210000000,-6.389127578
33220000000,-6.388991614
33230000000,-6.388536312
33240000000,-6.38821245
33250000000,-6.387906103
33260000000,-6.387609559
33270000000,-6.387064496
33280000000,-6.386555864
33290000000,-6.386178089
33300000000,-6.385748495
33310000000,-6.385793989
33320000000,-6.386000905
33330000000,-6.386245264
33340000000,-6.386602332
33350000000,-6.387341716
33360000000,-6.387798513
33370000000,-6.388771368
33380000000,-6.389515775
33390000000,-6.39036302
33400000000,-6.391522445
33410000000,-6.392858734
33420000000,-6.394429803
33430000000,-6.395845294
33440000000,-6.397222104
33450000000,-6.398571799
33460000000,-6.400133962
33470000000,-6.401332464
33480000000,-6.402448023
33490000000,-6.403788404
33500000000,-6.404906011
33510000000,-6.406194362
33520000000,-6.407302247
33530000000,-6.408104732
33540000000,-6.409231488
33550000000,-6.410095035
33560000000,-6.411195513
33570000000,-6.412245912
33580000000,-6.41333719
33590000000,-6.414484607
33600000000,-6.415641362
33610000000,-6.416827832
33620000000,-6.417999108
33630000000,-6.419463406
33640000000,-6.421143481
33650000000,-6.422741859
33660000000,-6.424742334
33670000000,-6.426627113
33680000000,-6.428892592
33690000000,-6.431214278
33700000000,-6.433608626
33710000000,-6.436129228
33720000000,-6.438424783
33730000000,-6.440851101
33740000000,-6.443549301
33750000000,-6.446276758
33760000000,-6.448837052
33770000000,-6.451575388
33780000000,-6.454687977
33790000000,-6.457746358
33800000000,-6.460960118
33810000000,-6.46416514
33820000000,-6.467444954
33830000000,-6.470455311
33840000000,-6.473567243
33850000000,-6.476603489
33860000000,-6.479664843
33870000000,-6.48277398
33880000000,-6.486024102
33890000000,-6.489246452
33900000000,-6.492596346
33910000000,-6.495716236
33920000000,-6.498856162
33930000000,-6.502085818
33940000000,-6.505242484
33950000000,-6.508321026
33960000000,-6.511415743
33970000000,-6.514743435
33980000000,-6.517907876
33990000000,-6.521004987
34000000000,-6.524116508
34010000000,-6.527172084
34020000000,-6.53016635
34030000000,-6.533144188
34040000000,-6.536213774
34050000000,-6.539297519
34060000000,-6.54230598
34070000000,-6.545436907
34080000000,-6.548582883
34090000000,-6.551892686
34100000000,-6.555042789
34110000000,-6.558142361
34120000000,-6.561534113
34130000000,-6.565088706
34140000000,-6.568660417
34150000000,-6.57226749
34160000000,-6.575911337
34170000000,-6.579388242
34180000000,-6.58307457
34190000000,-6.586753885
34200000000,-6.590366435
34210000000,-6.594173631
34220000000,-6.597668789
34230000000,-6.601360197
34240000000,-6.604867548
34250000000,-6.608317565
34260000000,-6.611811691
34270000000,-6.614784717
34280000000,-6.617811512
34290000000,-6.620850905
34300000000,-6.62369498
34310000000,-6.626281729
34320000000,-6.734923275
34330000000,-6.736890759
34340000000,-6.738858387
34350000000,-6.740826158
34360000000,-6.742794071
34370000000,-6.744762128
34380000000,-6.746730329
34390000000,-6.748698672
34400000000,-6.750667158
34410000000,-6.752635788
34420000000,-6.754604561
34430000000,-6.756573476
34440000000,-6.758542535
34450000000,-6.760511737
34460000000,-6.762481083
34470000000,-6.764450571
34480000000,-6.766420203
34490000000,-6.768389977
34500000000,-6.770359895
34510000000,-6.772329956
34520000000,-6.77430016
34530000000,-6.776270508
34540000000,-6.778240998
34550000000,-6.780211632
34560000000,-6.782182408
34570000000,-6.784153328
34580000000,-6.786124391
34590000000,-6.788095597
34600000000,-6.790066947
34610000000,-6.792038439
34620000000,-6.794010075
34630000000,-6.795981853
34640000000,-6.797953775
34650000000,-6.79992584
34660000000,-6.801898048
34670000000,-6.803870399
34680000000,-6.805842894
34690000000,-6.807815531
34700000000,-6.809788312
34710000000,-6.811761236
34720000000,-6.813734303
34730000000,-6.815707513
34740000000,-6.817680866
34750000000,-6.819654363
34760000000,-6.821628002
34770000000,-6.823601785
34780000000,-6.825575711
34790000000,-6.82754978
34800000000,-6.829523992
34810000000,-6.831498347
34820000000,-6.833472845
34830000000,-6.835447487
34840000000,-6.837422272
34850000000,-6.839397199
34860000000,-6.84137227
34870000000,-6.843347484
34880000000,-6.845322842
34890000000,-6.847298342
34900000000,-6.849273986
34910000000,-6.851249772
34920000000,-6.853225702
34930000000,-6.855201775
34940000000,-6.857177991
34950000000,-6.85915435
34960000000,-6.861130853
34970000000,-6.863107498
34980000000,-6.865084287
34990000000,-6.867061219
35000000000,-6.869038294
35010000000,-6.871015512
35020000000,-6.872992873
35030000000,-6.874970378
35040000000,-6.876948025
35050000000,-6.878925816
35060000000,-6.88090375
35070000000,-6.882881826
35080000000,-6.884860047
35090000000,-6.88683841
35100000000,-6.888816916
35110000000,-6.890795566
35120000000,-6.892774358
35130000000,-6.894753294
35140000000,-6.896732373
35150000000,-6.898711595
35160000000,-6.90069096
35170000000,-6.902670469
35180000000,-6.90465012
35190000000,-6.906629915
35200000000,-6.908609853
35210000000,-6.910589934
35220000000,-6.912570158
35230000000,-6.914550525
35240000000,-6.916531035
35250000000,-6.918511689
35260000000,-6.920492486
35270000000,-6.922473425
35280000000,-6.924454508
35290000000,-6.926435734
35300000000,-6.928417104
35310000000,-6.930398616
35320000000,-6.932380271
35330000000,-6.93436207
35340000000,-6.936344012
35350000000,-6.938326097
35360000000,-6.940308325
35370000000,-6.942290696
35380000000,-6.94427321
35390000000,-6.946255868
35400000000,-6.948238669
35410000000,-6.950221612
35420000000,-6.952204699
35430000000,-6.954187929
35440000000,-6.956171303
35450000000,-6.958154819
35460000000,-6.960138478
35470000000,-6.962122281
35480000000,-6.964106227
35490000000,-6.966090316
35500000000,-6.968074548
35510000000,-6.970058923
35520000000,-6.972043441
35530000000,-6.974028103
35540000000,-6.976012908
35550000000,-6.977997855
35560000000,-6.979982946
35570000000,-6.98196818
35580000000,-6.983953558
35590000000,-6.985939078
35600000000,-6.987924741
35610000000,-6.989910548
35620000000,-6.991896498
35630000000,-6.993882591
35640000000,-6.995868827
35650000000,-6.997855206
35660000000,-6.999841728
35670000000,-7.001828394
35680000000,-7.003815202
35690000000,-7.005802154
35700000000,-7.007789249
35710000000,-7.009776487
35720000000,-7.011763868
35730000000,-7.013751393
35740000000,-7.01573906
35750000000,-7.017726871
35760000000,-7.019714825
35770000000,-7.021702921
35780000000,-7.023691162
35790000000,-7.025679545
35800000000,-7.027668071
35810000000,-7.029656741
35820000000,-7.031645553
35830000000,-7.033634509
35840000000,-7.035623608
35850000000,-7.03761285
35860000000,-7.039602235
35870000000,-7.041591763
35880000000,-7.043581435
35890000000,-7.045571249
35900000000,-7.047561207
35910000000,-7.049551308
35920000000,-7.051541552
35930000000,-7.053531939
35940000000,-7.05552247
35950000000,-7.057513143
35960000000,-7.05950396
35970000000,-7.061494919
35980000000,-7.063486022
35990000000,-7.065477268
36000000000,-7.067468658
36010000000,-7.06946019
36020000000,-7.071451865
36030000000,-7.073443684
36040000000,-7.075435646
36050000000,-7.077427751
36060000000,-7.079419999
36070000000,-7.08141239
36080000000,-7.083404924
36090000000,-7.085397602
36100000000,-7.087390422
36110000000,-7.089383386
36120000000,-7.091376493
36130000000,-7.093369743
36140000000,-7.095363136
36150000000,-7.097356672
36160000000,-7.099350352
36170000000,-7.101344174
36180000000,-7.10333814
36190000000,-7.105332249
36200000000,-7.107326501
36210000000,-7.109320896
36220000000,-7.111315435
36230000000,-7.113310116
36240000000,-7.115304941
36250000000,-7.117299908
36260000000,-7.119295019
36270000000,-7.121290273
36280000000,-7.12328567
36290000000,-7.125281211
36300000000,-7.127276894
36310000000,-7.129272721
36320000000,-7.13126869
36330000000,-7.133264803
36340000000,-7.135261059
36350000000,-7.137257458
36360000000,-7.139254001
36370000000,-7.141250686
36380000000,-7.143247515
36390000000,-7.145244487
36400000000,-7.147241601
36410000000,-7.149238859
36420000000,-7.151236261
36430000000,-7.153233805
36440000000,-7.155231492
36450000000,-7.157229323
36460000000,-7.159227297
36470000000,-7.161225413
36480000000,-7.163223673
36490000000,-7.165222077
36500000000,-7.167220623
36510000000,-7.169219312
36520000000,-7.171218145
36530000000,-7.173217121
36540000000,-7.175216239
36550000000,-7.177215501
36560000000,-7.179214907
36570000000,-7.181214455
36580000000,-7.183214146
36590000000,-7.185213981
36600000000,-7.187213959
36610000000,-7.189214079
36620000000,-7.191214343
36630000000,-7.193214751
36640000000,-7.195215301
36650000000,-7.197215994
36660000000,-7.199216831
36670000000,-7.201217811
36680000000,-7.203218933
36690000000,-7.205220199
36700000000,-7.207221609
36710000000,-7.209223161
36720000000,-7.211224856
36730000000,-7.213226695
36740000000,-7.215228677
36750000000,-7.217230801
36760000000,-7.219233069
36770000000,-7.22123548
36780000000,-7.223238035
36790000000,-7.225240732
36800000000,-7.227243573
36810000000,-7.229246556
36820000000,-7.231249683
36830000000,-7.233252953
36840000000,-7.235256366
36850000000,-7.237259923
36860000000,-7.239263622
36870000000,-7.241267465
36880000000,-7.24327145
36890000000,-7.245275579
36900000000,-7.247279851
36910000000,-7.249284266
36920000000,-7.251288825
36930000000,-7.253293526
36940000000,-7.25529837
36950000000,-7.257303358
36960000000,-7.259308489
36970000000,-7.261313763
36980000000,-7.26331918
36990000000,-7.26532474
37000000000,-7.267330444
37010000000,-7.26933629
37020000000,-7.27134228
37030000000,-7.273348413
37040000000,-7.275354689
37050000000,-7.277361108
37060000000,-7.27936767
37070000000,-7.281374376
37080000000,-7.283381224
37090000000,-7.285388216
37100000000,-7.287395351
37110000000,-7.289402629
37120000000,-7.29141005
37130000000,-7.293417614
37140000000,-7.295425321
37150000000,-7.297433172
37160000000,-7.299441166
37170000000,-7.301449302
37180000000,-7.303457582
37190000000,-7.305466005
37200000000,-7.307474572
37210000000,-7.309483281
37220000000,-7.311492134
37230000000,-7.313501129
37240000000,-7.315510268
37250000000,-7.31751955
37260000000,-7.319528975
37270000000,-7.321538543
37280000000,-7.323548255
37290000000,-7.325558109
37300000000,-7.327568107
37310000000,-7.329578248
37320000000,-7.331588532
37330000000,-7.333598959
37340000000,-7.335609529
37350000000,-7.337620242
37360000000,-7.339631099
37370000000,-7.341642099
37380000000,-7.343653241
37390000000,-7.345664527
37400000000,-7.347675957
37410000000,-7.349687529
37420000000,-7.351699244
37430000000,-7.353711103
37440000000,-7.355723104
37450000000,-7.357735249
37460000000,-7.359747537
37470000000,-7.361759968
37480000000,-7.363772542
37490000000,-7.36578526
37500000000,-7.36779812
37510000000,-7.369811124
37520000000,-7.371824271
37530000000,-7.373837561
37540000000,-7.375850994
37550000000,-7.37786457
37560000000,-7.379878289
37570000000,-7.381892152
37580000000,-7.383906157
37590000000,-7.385920306
37600000000,-7.387934598
37610000000,-7.389949033
37620000000,-7.391963612
37630000000,-7.393978333
37640000000,-7.395993197
37650000000,-7.398008205
37660000000,-7.400023356
37670000000,-7.40203865
37680000000,-7.404054087
37690000000,-7.406069667
37700000000,-7.40808539
37710000000,-7.410101257
37720000000,-7.412117267
37730000000,-7.414133419
37740000000,-7.416149715
37750000000,-7.418166154
37760000000,-7.420182737
37770000000,-7.422199462
37780000000,-7.42421633
37790000000,-7.426233342
37800000000,-7.428250497
37810000000,-7.430267795
37820000000,-7.432285236
37830000000,-7.43430282
37840000000,-7.436320547
37850000000,-7.438338418
37860000000,-7.440356432
37870000000,-7.442374588
37880000000,-7.444392888
37890000000,-7.446411331
37900000000,-7.448429917
37910000000,-7.450448647
37920000000,-7.452467519
37930000000,-7.454486535
37940000000,-7.456505694
37950000000,-7.458524996
37960000000,-7.460544441
37970000000,-7.462564029
37980000000,-7.46458376
37990000000,-7.466603635
38000000000,-7.468623652
38010000000,-7.470643813
38020000000,-7.472664117
38030000000,-7.474684564
38040000000,-7.476705154
38050000000,-7.478725888
38060000000,-7.480746764
38070000000,-7.482767784
38080000000,-7.484788946
38090000000,-7.486810252
38100000000,-7.488831701
38110000000,-7.490853294
38120000000,-7.492875029
38130000000,-7.494896907
38140000000,-7.496918929
38150000000,-7.498941094
38160000000,-7.500963402
38170000000,-7.502985853
38180000000,-7.505008447
38190000000,-7.507031184
38200000000,-7.509054065
38210000000,-7.511077088
38220000000,-7.513100255
38230000000,-7.515123565
38240000000,-7.517147018
38250000000,-7.519170614
38260000000,-7.521194354
38270000000,-7.523218236
38280000000,-7.525242262
38290000000,-7.52726643
38300000000,-7.529290742
38310000000,-7.531315197
38320000000,-7.533339795
38330000000,-7.535364537
38340000000,-7.537389421
38350000000,-7.539414449
38360000000,-7.54143962
38370000000,-7.543464933
38380000000,-7.545490391
38390000000,-7.547515991
38400000000,-7.549541734
38410000000,-7.55156762
38420000000,-7.55359365
38430000000,-7.555619823
38440000000,-7.557646139
38450000000,-7.559672598
38460000000,-7.5616992
38470000000,-7.563725945
38480000000,-7.565752834
38490000000,-7.567779865
38500000000,-7.56980704
38510000000,-7.571834358
38520000000,-7.573861819
38530000000,-7.575889423
38540000000,-7.57791717
38550000000,-7.579945061
38560000000,-7.581973094
38570000000,-7.584001271
38580000000,-7.586029591
38590000000,-7.588058054
38600000000,-7.59008666
38610000000,-7.59211541
38620000000,-7.594144302
38630000000,-7.596173338
38640000000,-7.598202516
38650000000,-7.600231838
38660000000,-7.602261303
38670000000,-7.604290911
38680000000,-7.606320663
38690000000,-7.608350557
38700000000,-7.610380595
38710000000,-7.612410775
38720000000,-7.614441099
38730000000,-7.616471566
38740000000,-7.618502176
38750000000,-7.62053293
38760000000,-7.622563826
38770000000,-7.624594866
38780000000,-7.626626048
38790000000,-7.628657374
38800000000,-7.630688843
38810000000,-7.632720455
38820000000,-7.634752211
38830000000,-7.636784109
38840000000,-7.638816151
38850000000,-7.640848335
38860000000,-7.642880663
38870000000,-7.644913134
38880000000,-7.646945748
38890000000,-7.648978506
38900000000,-7.651011406
38910000000,-7.65304445
38920000000,-7.655077636
38930000000,-7.657110966
38940000000,-7.659144439
38950000000,-7.661178055
38960000000,-7.663211815
38970000000,-7.665245717
38980000000,-7.667279763
38990000000,-7.669313951
39000000000,-7.671348283
39010000000,-7.673382758
39020000000,-7.675417376
39030000000,-7.677452138
39040000000,-7.679487042
39050000000,-7.68152209
39060000000,-7.68355728
39070000000,-7.685592614
39080000000,-7.687628091
39090000000,-7.689663711
39100000000,-7.691699475
39110000000,-7.693735381
39120000000,-7.695771431
39130000000,-7.697807623
39140000000,-7.699843959
39150000000,-7.701880438
39160000000,-7.70391706
39170000000,-7.705953825
39180000000,-7.707990734
39190000000,-7.710027785
39200000000,-7.71206498
39210000000,-7.714102318
39220000000,-7.716139799
39230000000,-7.718177423
39240000000,-7.72021519
39250000000,-7.722253101
39260000000,-7.724291154
39270000000,-7.726329351
39280000000,-7.728367691
39290000000,-7.730406174
39300000000,-7.7324448
39310000000,-7.734483569
39320000000,-7.736522482
39330000000,-7.738561537
39340000000,-7.740600736
39350000000,-7.742640078
39360000000,-7.744679563
39370000000,-7.746719191
39380000000,-7.748758962
39390000000,-7.750798876
39400000000,-7.752838934
39410000000,-7.754879135
39420000000,-7.756919478
39430000000,-7.758959965
39440000000,-7.761000595
39450000000,-7.763041369
39460000000,-7.765082285
39470000000,-7.767123345
39480000000,-7.769164547
39490000000,-7.771205893
39500000000,-7.773247382
39510000000,-7.775289014
39520000000,-7.777330789
39530000000,-7.779372708
39540000000,-7.781414769
39550000000,-7.783456974
39560000000,-7.785499322
39570000000,-7.787541813
39580000000,-7.789584447
39590000000,-7.791627224
39600000000,-7.793670145
39610000000,-7.795713208
39620000000,-7.797756415
39630000000,-7.799799765
39640000000,-7.801843258
39650000000,-7.803886894
39660000000,-7.805930673
39670000000,-7.807974595
39680000000,-7.810018661
39690000000,-7.812062869
39700000000,-7.814107221
39710000000,-7.816151716
39720000000,-7.818196354
39730000000,-7.820241136
39740000000,-7.82228606
39750000000,-7.824331127
39760000000,-7.826376338
39770000000,-7.828421692
39780000000,-7.830467189
39790000000,-7.832512829
39800000000,-7.834558612
39810000000,-7.836604538
39820000000,-7.838650608
39830000000,-7.840696821
39840000000,-7.842743176
39850000000,-7.844789675
39860000000,-7.846836317
39870000000,-7.848883103
39880000000,-7.850930031
39890000000,-7.852977103
39900000000,-7.855024317
39910000000,-7.857071675
39920000000,-7.859119176
39930000000,-7.86116682
39940000000,-7.863214607
39950000000,-7.865262538
39960000000,-7.867310611
39970000000,-7.869358828
39980000000,-7.871407188
39990000000,-7.873455691
40000000000,-7.875504337
40010000000,-7.877553126
40020000000,-7.879602058
40030000000,-7.881651134
40040000000,-7.883700352
40050000000,-7.885749714
40060000000,-7.887799219
40070000000,-7.889848867
40080000000,-7.891898658
40090000000,-7.893948593
40100000000,-7.89599867
40110000000,-7.898048891
40120000000,-7.900099255
40130000000,-7.902149761
40140000000,-7.904200412
40150000000,-7.906251205
40160000000,-7.908302141
40170000000,-7.910353221
40180000000,-7.912404443
40190000000,-7.914455809
40200000000,-7.916507318
40210000000,-7.91855897
40220000000,-7.920610765
40230000000,-7.922662704
40240000000,-7.924714785
40250000000,-7.92676701
40260000000,-7.928819377
40270000000,-7.930871888
40280000000,-7.932924542
40290000000,-7.93497734
40300000000,-7.93703028
40310000000,-7.939083363
40320000000,-7.94113659
40330000000,-7.94318996
40340000000,-7.945243473
40350000000,-7.947297129
40360000000,-7.949350928
40370000000,-7.95140487
40380000000,-7.953458956
40390000000,-7.955513184
40400000000,-7.957567556
40410000000,-7.959622071
40420000000,-7.961676729
40430000000,-7.96373153
40440000000,-7.965786475
40450000000,-7.967841562
40460000000,-7.969896793
40470000000,-7.971952167
40480000000,-7.974007683
40490000000,-7.976063343
40500000000,-7.978119147
40510000000,-7.980175093
40520000000,-7.982231182
40530000000,-7.984287415
40540000000,-7.986343791
40550000000,-7.98840031
40560000000,-7.990456972
40570000000,-7.992513777
40580000000,-7.994570725
40590000000,-7.996627817
40600000000,-7.998685051
40610000000,-8.000742429
40620000000,-8.00279995
40630000000,-8.004857614
40640000000,-8.006915421
40650000000,-8.008973371
40660000000,-8.011031465
40670000000,-8.013089702
40680000000,-8.015148081
40690000000,-8.017206604
40700000000,-8.01926527
40710000000,-8.021324079
40720000000,-8.023383032
40730000000,-8.025442127
40740000000,-8.027501366
40750000000,-8.029560748
40760000000,-8.031620272
40770000000,-8.03367994
40780000000,-8.035739752
40790000000,-8.037799706
40800000000,-8.039859803
40810000000,-8.041920044
40820000000,-8.043980428
40830000000,-8.046040955
40840000000,-8.048101625
40850000000,-8.050162438
40860000000,-8.052223394
40870000000,-8.054284494
40880000000,-8.056345736
40890000000,-8.058407122
40900000000,-8.060468651
40910000000,-8.062530323
40920000000,-8.064592138
40930000000,-8.066654096
40940000000,-8.068716198
40950000000,-8.070778442
40960000000,-8.07284083
40970000000,-8.074903361
40980000000,-8.076966035
40990000000,-8.079028852
41000000000,-8.081091812
41010000000,-8.083154916
41020000000,-8.085218162
41030000000,-8.087281552
41040000000,-8.089345085
41050000000,-8.091408761
41060000000,-8.09347258
41070000000,-8.095536542
41080000000,-8.097600648
41090000000,-8.099664896
41100000000,-8.101729288
41110000000,-8.103793823
41120000000,-8.105858501
41130000000,-8.107923322
41140000000,-8.109988286
41150000000,-8.112053394
41160000000,-8.114118644
41170000000,-8.116184038
41180000000,-8.118249575
41190000000,-8.120315255
41200000000,-8.122381078
41210000000,-8.124447044
41220000000,-8.126513154
41230000000,-8.128579406
41240000000,-8.130645802
41250000000,-8.132712341
41260000000,-8.134779023
41270000000,-8.136845848
41280000000,-8.138912816
41290000000,-8.140979928
41300000000,-8.143047182
41310000000,-8.14511458
41320000000,-8.147182121
41330000000,-8.149249805
41340000000,-8.151317632
41350000000,-8.153385602
41360000000,-8.155453716
41370000000,-8.157521972
41380000000,-8.159590372
41390000000,-8.161658915
41400000000,-8.163727601
41410000000,-8.16579643
41420000000,-8.167865402
41430000000,-8.169934518
41440000000,-8.172003776
41450000000,-8.174073178
41460000000,-8.176142723
41470000000,-8.178212411
41480000000,-8.180282242
41490000000,-8.182352216
41500000000,-8.184422334
41510000000,-8.186492594
41520000000,-8.188562998
41530000000,-8.190633545
41540000000,-8.192704235
41550000000,-8.194775068
41560000000,-8.196846044
41570000000,-8.198917163
41580000000,-8.200988426
41590000000,-8.203059832
41600000000,-8.20513138
41610000000,-8.207203072
41620000000,-8.209274908
41630000000,-8.211346886
41640000000,-8.213419007
41650000000,-8.215491272
41660000000,-8.217563679
41670000000,-8.21963623
41680000000,-8.221708924
41690000000,-8.223781761
41700000000,-8.225854742
41710000000,-8.227927865
41720000000,-8.230001132
41730000000,-8.232074541
41740000000,-8.234148094
41750000000,-8.23622179
41760000000,-8.238295629
41770000000,-8.240369611
41780000000,-8.242443737
41790000000,-8.244518005
41800000000,-8.246592417
41810000000,-8.248666972
41820000000,-8.25074167
41830000000,-8.252816511
41840000000,-8.254891495
41850000000,-8.256966622
41860000000,-8.259041893
41870000000,-8.261117307
41880000000,-8.263192863
41890000000,-8.265268563
41900000000,-8.267344407
41910000000,-8.269420393
41920000000,-8.271496522
41930000000,-8.273572795
41940000000,-8.27564921
41950000000,-8.277725769
41960000000,-8.279802471
41970000000,-8.281879316
41980000000,-8.283956304
41990000000,-8.286033436
42000000000,-8.28811071
42010000000,-8.290188128
42020000000,-8.292265689
42030000000,-8.294343393
42040000000,-8.29642124
42050000000,-8.29849923
42060000000,-8.300577363
42070000000,-8.30265564
42080000000,-8.30473406
42090000000,-8.306812622
42100000000,-8.308891328
42110000000,-8.310970177
42120000000,-8.31304917
42130000000,-8.315128305
42140000000,-8.317207584
42150000000,-8.319287005
42160000000,-8.32136657
42170000000,-8.323446278
42180000000,-8.325526129
42190000000,-8.327606123
42200000000,-8.329686261
42210000000,-8.331766541
42220000000,-8.333846965
42230000000,-8.335927532
42240000000,-8.338008242
42250000000,-8.340089095
42260000000,-8.342170091
42270000000,-8.34425123
42280000000,-8.346332513
42290000000,-8.348413938
42300000000,-8.350495507
42310000000,-8.352577219
42320000000,-8.354659074
42330000000,-8.356741072
42340000000,-8.358823214
42350000000,-8.360905498
42360000000,-8.362987926
42370000000,-8.365070497
42380000000,-8.367153211
42390000000,-8.369236068
42400000000,-8.371319068
42410000000,-8.373402211
42420000000,-8.375485498
42430000000,-8.377568927
42440000000,-8.3796525
42450000000,-8.381736216
42460000000,-8.383820075
42470000000,-8.385904077
42480000000,-8.387988223
42490000000,-8.390072511
42500000000,-8.392156943
42510000000,-8.394241518
42520000000,-8.396326235
42530000000,-8.398411097
42540000000,-8.400496101
42550000000,-8.402581248
42560000000,-8.404666539
42570000000,-8.406751972
42580000000,-8.408837549
42590000000,-8.410923269
42600000000,-8.413009132
42610000000,-8.415095138
42620000000,-8.417181287
42630000000,-8.41926758
42640000000,-8.421354016
42650000000,-8.423440594
42660000000,-8.425527316
42670000000,-8.427614181
42680000000,-8.42970119
42690000000,-8.431788341
42700000000,-8.433875635
42710000000,-8.435963073
42720000000,-8.438050654
42730000000,-8.440138378
42740000000,-8.442226245
42750000000,-8.444314255
42760000000,-8.446402408
42770000000,-8.448490705
42780000000,-8.450579144
42790000000,-8.452667727
42800000000,-8.454756453
42810000000,-8.456845322
42820000000,-8.458934334
42830000000,-8.461023489
42840000000,-8.463112788
42850000000,-8.46520223
42860000000,-8.467291814
42870000000,-8.469381542
42880000000,-8.471471413
42890000000,-8.473561427
42900000000,-8.475651585
42910000000,-8.477741885
42920000000,-8.479832329
42930000000,-8.481922916
42940000000,-8.484013645
42950000000,-8.486104519
42960000000,-8.488195535
42970000000,-8.490286694
42980000000,-8.492377996
42990000000,-8.494469442
43000000000,-8.496561031
43010000000,-8.498652763
43020000000,-8.500744638
43030000000,-8.502836656
43040000000,-8.504928817
43050000000,-8.507021122
43060000000,-8.509113569
43070000000,-8.51120616
43080000000,-8.513298894
43090000000,-8.515391771
43100000000,-8.517484791
43110000000,-8.519577954
43120000000,-8.521671261
43130000000,-8.52376471
43140000000,-8.525858303
43150000000,-8.527952039
43160000000,-8.530045918
43170000000,-8.53213994
43180000000,-8.534234106
43190000000,-8.536328414
43200000000,-8.538422866
43210000000,-8.54051746
43220000000,-8.542612198
43230000000,-8.544707079
43240000000,-8.546802103
43250000000,-8.548897271
43260000000,-8.550992581
43270000000,-8.553088035
43280000000,-8.555183631
43290000000,-8.557279371
43300000000,-8.559375254
43310000000,-8.56147128
43320000000,-8.56356745
43330000000,-8.565663762
43340000000,-8.567760218
43350000000,-8.569856817
43360000000,-8.571953558
43370000000,-8.574050443
43380000000,-8.576147472
43390000000,-8.578244643
43400000000,-8.580341957
43410000000,-8.582439415
43420000000,-8.584537016
43430000000,-8.586634759
43440000000,-8.588732646
43450000000,-8.590830677
43460000000,-8.59292885
43470000000,-8.595027166
43480000000,-8.597125626
43490000000,-8.599224229
43500000000,-8.601322974
43510000000,-8.603421863
43520000000,-8.605520896
43530000000,-8.607620071
43540000000,-8.609719389
43550000000,-8.611818851
43560000000,-8.613918456
43570000000,-8.616018203
43580000000,-8.618118094
43590000000,-8.620218129
43600000000,-8.622318306
43610000000,-8.624418626
43620000000,-8.62651909
43630000000,-8.628619697
43640000000,-8.630720446
43650000000,-8.632821339
43660000000,-8.634922375
43670000000,-8.637023555
43680000000,-8.639124877
43690000000,-8.641226343
43700000000,-8.643327951
43710000000,-8.645429703
43720000000,-8.647531598
43730000000,-8.649633636
43740000000,-8.651735818
43750000000,-8.653838142
43760000000,-8.65594061
43770000000,-8.65804322
43780000000,-8.660145974
43790000000,-8.662248871
43800000000,-8.664351911
43810000000,-8.666455095
43820000000,-8.668558421
43830000000,-8.670661891
43840000000,-8.672765503
43850000000,-8.674869259
43860000000,-8.676973158
43870000000,-8.6790772
43880000000,-8.681181385
43890000000,-8.683285714
43900000000,-8.685390185
43910000000,-8.6874948
43920000000,-8.689599558
43930000000,-8.691704459
43940000000,-8.693809503
43950000000,-8.69591469
43960000000,-8.698020021
43970000000,-8.700125494
43980000000,-8.702231111
43990000000,-8.704336871
44000000000,-8.706442774
44010000000,-8.70854882
44020000000,-8.710655009
44030000000,-8.712761341
44040000000,-8.714867817
44050000000,-8.716974436
44060000000,-8.719081197
44070000000,-8.721188102
44080000000,-8.723295151
44090000000,-8.725402342
44100000000,-8.727509676
44110000000,-8.729617154
44120000000,-8.731724774
44130000000,-8.733832538
44140000000,-8.735940445
44150000000,-8.738048495
44160000000,-8.740156689
44170000000,-8.742265025
44180000000,-8.744373504
44190000000,-8.746482127
44200000000,-8.748590893
44210000000,-8.750699802
44220000000,-8.752808854
44230000000,-8.754918049
44240000000,-8.757027388
44250000000,-8.759136869
44260000000,-8.761246494
44270000000,-8.763356262
44280000000,-8.765466173
44290000000,-8.767576227
44300000000,-8.769686424
44310000000,-8.771796764
44320000000,-8.773907248
44330000000,-8.776017874
44340000000,-8.778128644
44350000000,-8.780239557
44360000000,-8.782350613
44370000000,-8.784461813
44380000000,-8.786573155
44390000000,-8.78868464
44400000000,-8.790796269
44410000000,-8.792908041
44420000000,-8.795019956
44430000000,-8.797132014
44440000000,-8.799244215
44450000000,-8.801356559
44460000000,-8.803469047
44470000000,-8.805581678
44480000000,-8.807694451
44490000000,-8.809807368
44500000000,-8.811920428
44510000000,-8.814033632
44520000000,-8.816146978
44530000000,-8.818260468
44540000000,-8.8203741
44550000000,-8.822487876
44560000000,-8.824601795
44570000000,-8.826715857
44580000000,-8.828830062
44590000000,-8.830944411
44600000000,-8.833058902
44610000000,-8.835173537
44620000000,-8.837288315
44630000000,-8.839403235
44640000000,-8.8415183
44650000000,-8.843633507
44660000000,-8.845748857
44670000000,-8.847864351
44680000000,-8.849979987
44690000000,-8.852095767
44700000000,-8.85421169
44710000000,-8.856327756
44720000000,-8.858443965
44730000000,-8.860560318
44740000000,-8.862676813
44750000000,-8.864793452
44760000000,-8.866910233
44770000000,-8.869027158
44780000000,-8.871144226
44790000000,-8.873261438
44800000000,-8.875378792
44810000000,-8.87749629
44820000000,-8.87961393
44830000000,-8.881731714
44840000000,-8.883849641
44850000000,-8.885967711
44860000000,-8.888085924
44870000000,-8.89020428
44880000000,-8.89232278
44890000000,-8.894441423
44900000000,-8.896560208
44910000000,-8.898679137
44920000000,-8.900798209
44930000000,-8.902917425
44940000000,-8.905036783
44950000000,-8.907156284
44960000000,-8.909275929
44970000000,-8.911395717
44980000000,-8.913515648
44990000000,-8.915635722
45000000000,-8.917755939
45010000000,-8.919876299
45020000000,-8.921996803
45030000000,-8.924117449
45040000000,-8.926238239
45050000000,-8.928359172
45060000000,-8.930480248
45070000000,-8.932601467
45080000000,-8.93472283
45090000000,-8.936844335
45100000000,-8.938965984
45110000000,-8.941087775
45120000000,-8.94320971
45130000000,-8.945331788
45140000000,-8.94745401
45150000000,-8.949576374
45160000000,-8.951698881
45170000000,-8.953821532
45180000000,-8.955944326
45190000000,-8.958067263
45200000000,-8.960190343
45210000000,-8.962313566
45220000000,-8.964436932
45230000000,-8.966560442
45240000000,-8.968684094
45250000000,-8.97080789
45260000000,-8.972931829
45270000000,-8.975055911
45280000000,-8.977180136
45290000000,-8.979304504
45300000000,-8.981429016
45310000000,-8.98355367
45320000000,-8.985678468
45330000000,-8.987803409
45340000000,-8.989928493
45350000000,-8.99205372
45360000000,-8.994179091
45370000000,-8.996304604
45380000000,-8.998430261
45390000000,-9.00055606
45400000000,-9.002682003
45410000000,-9.004808089
45420000000,-9.006934318
45430000000,-9.009060691
45440000000,-9.011187206
45450000000,-9.013313865
45460000000,-9.015440667
45470000000,-9.017567611
45480000000,-9.019694699
45490000000,-9.021821931
45500000000,-9.023949305
45510000000,-9.026076822
45520000000,-9.028204483
45530000000,-9.030332287
45540000000,-9.032460234
45550000000,-9.034588324
45560000000,-9.036716557
45570000000,-9.038844933
45580000000,-9.040973452
45590000000,-9.043102115
45600000000,-9.045230921
45610000000,-9.04735987
45620000000,-9.049488962
45630000000,-9.051618197
45640000000,-9.053747575
45650000000,-9.055877097
45660000000,-9.058006761
45670000000,-9.060136569
45680000000,-9.06226652
45690000000,-9.064396614
45700000000,-9.066526851
45710000000,-9.068657231
45720000000,-9.070787755
45730000000,-9.072918421
45740000000,-9.075049231
45750000000,-9.077180184
45760000000,-9.07931128
45770000000,-9.081442519
45780000000,-9.083573901
45790000000,-9.085705427
45800000000,-9.087837095
45810000000,-9.089968907
45820000000,-9.092100862
45830000000,-9.09423296
45840000000,-9.096365201
45850000000,-9.098497585
45860000000,-9.100630113
45870000000,-9.102762783
45880000000,-9.104895597
45890000000,-9.107028554
45900000000,-9.109161654
45910000000,-9.111294897
45920000000,-9.113428283
45930000000,-9.115561813
45940000000,-9.117695485
45950000000,-9.119829301
45960000000,-9.12196326
45970000000,-9.124097362
45980000000,-9.126231607
45990000000,-9.128365995
46000000000,-9.130500526
46010000000,-9.132635201
46020000000,-9.134770019
46030000000,-9.13690498
46040000000,-9.139040084
46050000000,-9.141175331
46060000000,-9.143310721
46070000000,-9.145446254
46080000000,-9.147581931
46090000000,-9.149717751
46100000000,-9.151853713
46110000000,-9.153989819
46120000000,-9.156126069
46130000000,-9.158262461
46140000000,-9.160398996
46150000000,-9.162535675
46160000000,-9.164672496
46170000000,-9.166809461
46180000000,-9.168946569
46190000000,-9.17108382
46200000000,-9.173221215
46210000000,-9.175358752
46220000000,-9.177496433
46230000000,-9.179634256
46240000000,-9.181772223
46250000000,-9.183910333
46260000000,-9.186048586
46270000000,-9.188186982
46280000000,-9.190325522
46290000000,-9.192464204
46300000000,-9.19460303
46310000000,-9.196741999
46320000000,-9.198881111
46330000000,-9.201020366
46340000000,-9.203159764
46350000000,-9.205299306
46360000000,-9.20743899
46370000000,-9.209578818
46380000000,-9.211718789
46390000000,-9.213858903
46400000000,-9.21599916
46410000000,-9.21813956
46420000000,-9.220280103
46430000000,-9.22242079
46440000000,-9.22456162
46450000000,-9.226702592
46460000000,-9.228843708
46470000000,-9.230984968
46480000000,-9.23312637
46490000000,-9.235267915
46500000000,-9.237409604
46510000000,-9.239551435
46520000000,-9.24169341
46530000000,-9.243835528
46540000000,-9.245977789
46550000000,-9.248120193
46560000000,-9.250262741
46570000000,-9.252405431
46580000000,-9.254548265
46590000000,-9.256691242
46600000000,-9.258834362
46610000000,-9.260977625
46620000000,-9.263121031
46630000000,-9.26526458
46640000000,-9.267408273
46650000000,-9.269552109
46660000000,-9.271696087
46670000000,-9.273840209
46680000000,-9.275984475
46690000000,-9.278128883
46700000000,-9.280273434
46710000000,-9.282418129
46720000000,-9.284562966
46730000000,-9.286707947
46740000000,-9.288853071
46750000000,-9.290998338
46760000000,-9.293143748
46770000000,-9.295289302
46780000000,-9.297434998
46790000000,-9.299580838
46800000000,-9.301726821
46810000000,-9.303872947
46820000000,-9.306019216
46830000000,-9.308165628
46840000000,-9.310312183
46850000000,-9.312458882
46860000000,-9.314605723
46870000000,-9.316752708
46880000000,-9.318899836
46890000000,-9.321047107
46900000000,-9.323194521
46910000000,-9.325342079
46920000000,-9.327489779
46930000000,-9.329637623
46940000000,-9.33178561
46950000000,-9.33393374
46960000000,-9.336082013
46970000000,-9.338230429
46980000000,-9.340378988
46990000000,-9.342527691
47000000000,-9.344676536
47010000000,-9.346825525
47020000000,-9.348974657
47030000000,-9.351123932
47040000000,-9.35327335
47050000000,-9.355422912
47060000000,-9.357572616
47070000000,-9.359722464
47080000000,-9.361872455
47090000000,-9.364022589
47100000000,-9.366172866
47110000000,-9.368323286
47120000000,-9.370473849
47130000000,-9.372624556
47140000000,-9.374775405
47150000000,-9.376926398
47160000000,-9.379077534
47170000000,-9.381228813
47180000000,-9.383380235
47190000000,-9.385531801
47200000000,-9.387683509
47210000000,-9.389835361
47220000000,-9.391987356
47230000000,-9.394139493
47240000000,-9.396291774
47250000000,-9.398444199
47260000000,-9.400596766
47270000000,-9.402749477
47280000000,-9.40490233
47290000000,-9.407055327
47300000000,-9.409208467
47310000000,-9.41136175
47320000000,-9.413515176
47330000000,-9.415668745
47340000000,-9.417822458
47350000000,-9.419976313
47360000000,-9.422130312
47370000000,-9.424284454
47380000000,-9.426438739
47390000000,-9.428593167
47400000000,-9.430747739
47410000000,-9.432902453
47420000000,-9.435057311
47430000000,-9.437212312
47440000000,-9.439367455
47450000000,-9.441522742
47460000000,-9.443678173
47470000000,-9.445833746
47480000000,-9.447989462
47490000000,-9.450145322
47500000000,-9.452301325
47510000000,-9.454457471
47520000000,-9.45661376
47530000000,-9.458770192
47540000000,-9.460926767
47550000000,-9.463083486
47560000000,-9.465240347
47570000000,-9.467397352
47580000000,-9.4695545
47590000000,-9.471711791
47600000000,-9.473869225
47610000000,-9.476026802
47620000000,-9.478184523
47630000000,-9.480342387
47640000000,-9.482500393
47650000000,-9.484658543
47660000000,-9.486816836
47670000000,-9.488975272
47680000000,-9.491133852
47690000000,-9.493292574
47700000000,-9.49545144
47710000000,-9.497610448
47720000000,-9.4997696
47730000000,-9.501928895
47740000000,-9.504088334
47750000000,-9.506247915
47760000000,-9.508407639
47770000000,-9.510567507
47780000000,-9.512727518
47790000000,-9.514887672
47800000000,-9.517047969
47810000000,-9.519208409
47820000000,-9.521368992
47830000000,-9.523529718
47840000000,-9.525690588
47850000000,-9.527851601
47860000000,-9.530012757
47870000000,-9.532174056
47880000000,-9.534335498
47890000000,-9.536497083
47900000000,-9.538658812
47910000000,-9.540820683
47920000000,-9.542982698
47930000000,-9.545144856
47940000000,-9.547307157
47950000000,-9.549469601
47960000000,-9.551632188
47970000000,-9.553794919
47980000000,-9.555957792
47990000000,-9.558120809
48000000000,-9.560283969
48010000000,-9.562447272
48020000000,-9.564610718
48030000000,-9.566774307
48040000000,-9.56893804
48050000000,-9.571101915
48060000000,-9.573265934
48070000000,-9.575430096
48080000000,-9.577594401
48090000000,-9.579758849
48100000000,-9.58192344
48110000000,-9.584088175
48120000000,-9.586253052
48130000000,-9.588418073
48140000000,-9.590583237
48150000000,-9.592748544
48160000000,-9.594913994
48170000000,-9.597079587
48180000000,-9.599245324
48190000000,-9.601411203
48200000000,-9.603577226
48210000000,-9.605743392
48220000000,-9.607909701
48230000000,-9.610076153
48240000000,-9.612242748
48250000000,-9.614409487
48260000000,-9.616576368
48270000000,-9.618743393
48280000000,-9.620910561
48290000000,-9.623077872
48300000000,-9.625245326
48310000000,-9.627412923
48320000000,-9.629580664
48330000000,-9.631748547
48340000000,-9.633916574
48350000000,-9.636084744
48360000000,-9.638253057
48370000000,-9.640421513
48380000000,-9.642590112
48390000000,-9.644758854
48400000000,-9.64692774
48410000000,-9.649096769
48420000000,-9.651265941
48430000000,-9.653435256
48440000000,-9.655604714
48450000000,-9.657774315
48460000000,-9.659944059
48470000000,-9.662113947
48480000000,-9.664283978
48490000000,-9.666454151
48500000000,-9.668624468
48510000000,-9.670794929
48520000000,-9.672965532
48530000000,-9.675136278
48540000000,-9.677307168
48550000000,-9.6794782
48560000000,-9.681649376
48570000000,-9.683820695
48580000000,-9.685992157
48590000000,-9.688163763
48600000000,-9.690335511
48610000000,-9.692507403
48620000000,-9.694679437
48630000000,-9.696851615
48640000000,-9.699023936
48650000000,-9.7011964
48660000000,-9.703369007
48670000000,-9.705541758
48680000000,-9.707714651
48690000000,-9.709887688
48700000000,-9.712060868
48710000000,-9.714234191
48720000000,-9.716407657
48730000000,-9.718581266
48740000000,-9.720755018
48750000000,-9.722928914
48760000000,-9.725102953
48770000000,-9.727277135
48780000000,-9.729451459
48790000000,-9.731625928
48800000000,-9.733800539
48810000000,-9.735975293
48820000000,-9.738150191
48830000000,-9.740325231
48840000000,-9.742500415
48850000000,-9.744675742
48860000000,-9.746851212
48870000000,-9.749026825
48880000000,-9.751202582
48890000000,-9.753378481
48900000000,-9.755554524
48910000000,-9.75773071
48920000000,-9.759907039
48930000000,-9.762083511
48940000000,-9.764260126
48950000000,-9.766436885
48960000000,-9.768613786
48970000000,-9.770790831
48980000000,-9.772968019
48990000000,-9.775145349
49000000000,-9.777322824
49010000000,-9.779500441
49020000000,-9.781678201
49030000000,-9.783856105
49040000000,-9.786034151
49050000000,-9.788212341
49060000000,-9.790390674
49070000000,-9.79256915
49080000000,-9.794747769
49090000000,-9.796926532
49100000000,-9.799105437
49110000000,-9.801284486
49120000000,-9.803463678
49130000000,-9.805643013
49140000000,-9.807822491
49150000000,-9.810002112
49160000000,-9.812181876
49170000000,-9.814361784
49180000000,-9.816541834
49190000000,-9.818722028
49200000000,-9.820902365
49210000000,-9.823082845
49220000000,-9.825263468
49230000000,-9.827444235
49240000000,-9.829625144
49250000000,-9.831806197
49260000000,-9.833987393
49270000000,-9.836168732
49280000000,-9.838350214
49290000000,-9.840531839
49300000000,-9.842713607
49310000000,-9.844895519
49320000000,-9.847077573
49330000000,-9.849259771
49340000000,-9.851442112
49350000000,-9.853624596
49360000000,-9.855807223
49370000000,-9.857989994
49380000000,-9.860172907
49390000000,-9.862355964
49400000000,-9.864539164
49410000000,-9.866722507
49420000000,-9.868905993
49430000000,-9.871089622
49440000000,-9.873273394
49450000000,-9.87545731
49460000000,-9.877641368
49470000000,-9.87982557
49480000000,-9.882009915
49490000000,-9.884194403
49500000000,-9.886379034
49510000000,-9.888563809
49520000000,-9.890748726
49530000000,-9.892933787
49540000000,-9.895118991
49550000000,-9.897304337
49560000000,-9.899489828
49570000000,-9.901675461
49580000000,-9.903861237
49590000000,-9.906047157
49600000000,-9.908233219
49610000000,-9.910419425
49620000000,-9.912605774
49630000000,-9.914792266
49640000000,-9.916978901
49650000000,-9.919165679
49660000000,-9.921352601
49670000000,-9.923539665
49680000000,-9.925726873
49690000000,-9.927914224
49700000000,-9.930101718
49710000000,-9.932289355
49720000000,-9.934477136
49730000000,-9.936665059
49740000000,-9.938853126
49750000000,-9.941041336
49760000000,-9.943229688
49770000000,-9.945418184
49780000000,-9.947606824
49790000000,-9.949795606
49800000000,-9.951984531
49810000000,-9.9541736
49820000000,-9.956362812
49830000000,-9.958552167
49840000000,-9.960741665
49850000000,-9.962931306
49860000000,-9.96512109
49870000000,-9.967311018
49880000000,-9.969501088
49890000000,-9.971691302
49900000000,-9.973881659
49910000000,-9.976072159
49920000000,-9.978262802
49930000000,-9.980453588
49940000000,-9.982644518
49950000000,-9.984835591
49960000000,-9.987026806
49970000000,-9.989218165
49980000000,-9.991409667
49990000000,-9.993601312
50000000000,-9.995793101
50010000000,-9.997985032
50020000000,-10.00017711
50030000000,-10.00236932
50040000000,-10.00456169
50050000000,-10.00675419
50060000000,-10.00894684
50070000000,-10.01113963
50080000000,-10.01333256
50090000000,-10.01552564
50100000000,-10.01771886
50110000000,-10.01991222
50120000000,-10.02210573
50130000000,-10.02429937
50140000000,-10.02649317
50150000000,-10.0286871
50160000000,-10.03088118
50170000000,-10.0330754
50180000000,-10.03526977
50190000000,-10.03746428
50200000000,-10.03965893
50210000000,-10.04185372
50220000000,-10.04404866
50230000000,-10.04624374
50240000000,-10.04843896
50250000000,-10.05063433
50260000000,-10.05282984
50270000000,-10.05502549
50280000000,-10.05722129
50290000000,-10.05941723
50300000000,-10.06161331
50310000000,-10.06380954
50320000000,-10.06600591
50330000000,-10.06820242
50340000000,-10.07039907
50350000000,-10.07259587
50360000000,-10.07479281
50370000000,-10.0769899
50380000000,-10.07918712
50390000000,-10.0813845
50400000000,-10.08358201
50410000000,-10.08577967
50420000000,-10.08797747
50430000000,-10.09017541
50440000000,-10.0923735
50450000000,-10.09457173
50460000000,-10.0967701
50470000000,-10.09896862
50480000000,-10.10116727
50490000000,-10.10336608
50500000000,-10.10556502
50510000000,-10.10776411
50520000000,-10.10996334
50530000000,-10.11216272
50540000000,-10.11436224
50550000000,-10.1165619
50560000000,-10.1187617
50570000000,-10.12096165
50580000000,-10.12316174
50590000000,-10.12536197
50600000000,-10.12756235
50610000000,-10.12976287
50620000000,-10.13196353
50630000000,-10.13416434
50640000000,-10.13636529
50650000000,-10.13856638
50660000000,-10.14076762
50670000000,-10.142969
50680000000,-10.14517052
50690000000,-10.14737218
50700000000,-10.14957399
50710000000,-10.15177594
50720000000,-10.15397804
50730000000,-10.15618027
50740000000,-10.15838266
50750000000,-10.16058518
50760000000,-10.16278785
50770000000,-10.16499066
50780000000,-10.16719361
50790000000,-10.16939671
50800000000,-10.17159995
50810000000,-10.17380333
50820000000,-10.17600686
50830000000,-10.17821052
50840000000,-10.18041434
50850000000,-10.18261829
50860000000,-10.18482239
50870000000,-10.18702663
50880000000,-10.18923102
50890000000,-10.19143555
50900000000,-10.19364022
50910000000,-10.19584503
50920000000,-10.19804999
50930000000,-10.20025509
50940000000,-10.20246033
50950000000,-10.20466572
50960000000,-10.20687125
50970000000,-10.20907692
50980000000,-10.21128274
50990000000,-10.2134887
51000000000,-10.2156948
51010000000,-10.21790105
51020000000,-10.22010743
51030000000,-10.22231397
51040000000,-10.22452064
51050000000,-10.22672746
51060000000,-10.22893442
51070000000,-10.23114153
51080000000,-10.23334877
51090000000,-10.23555616
51100000000,-10.2377637
51110000000,-10.23997138
51120000000,-10.2421792
51130000000,-10.24438716
51140000000,-10.24659527
51150000000,-10.24880352
51160000000,-10.25101191
51170000000,-10.25322044
51180000000,-10.25542912
51190000000,-10.25763795
51200000000,-10.25984691
51210000000,-10.26205602
51220000000,-10.26426527
51230000000,-10.26647467
51240000000,-10.2686842
51250000000,-10.27089388
51260000000,-10.27310371
51270000000,-10.27531368
51280000000,-10.27752379
51290000000,-10.27973404
51300000000,-10.28194444
51310000000,-10.28415498
51320000000,-10.28636566
51330000000,-10.28857649
51340000000,-10.29078746
51350000000,-10.29299857
51360000000,-10.29520982
51370000000,-10.29742122
51380000000,-10.29963276
51390000000,-10.30184445
51400000000,-10.30405628
51410000000,-10.30626825
51420000000,-10.30848036
51430000000,-10.31069262
51440000000,-10.31290502
51450000000,-10.31511757
51460000000,-10.31733025
51470000000,-10.31954308
51480000000,-10.32175606
51490000000,-10.32396917
51500000000,-10.32618243
51510000000,-10.32839584
51520000000,-10.33060938
51530000000,-10.33282307
51540000000,-10.3350369
51550000000,-10.33725088
51560000000,-10.339465
51570000000,-10.34167926
51580000000,-10.34389366
51590000000,-10.34610821
51600000000,-10.3483229
51610000000,-10.35053774
51620000000,-10.35275271
51630000000,-10.35496783
51640000000,-10.3571831
51650000000,-10.35939851
51660000000,-10.36161406
51670000000,-10.36382975
51680000000,-10.36604558
51690000000,-10.36826156
51700000000,-10.37047769
51710000000,-10.37269395
51720000000,-10.37491036
51730000000,-10.37712691
51740000000,-10.37934361
51750000000,-10.38156045
51760000000,-10.38377743
51770000000,-10.38599455
51780000000,-10.38821182
51790000000,-10.39042923
51800000000,-10.39264678
51810000000,-10.39486448
51820000000,-10.39708232
51830000000,-10.3993003
51840000000,-10.40151843
51850000000,-10.4037367
51860000000,-10.40595511
51870000000,-10.40817367
51880000000,-10.41039237
51890000000,-10.41261121
51900000000,-10.4148302
51910000000,-10.41704932
51920000000,-10.4192686
51930000000,-10.42148801
51940000000,-10.42370757
51950000000,-10.42592727
51960000000,-10.42814711
51970000000,-10.4303671
51980000000,-10.43258723
51990000000,-10.43480751
52000000000,-10.43702792
52010000000,-10.43924848
52020000000,-10.44146918
52030000000,-10.44369003
52040000000,-10.44591102
52050000000,-10.44813215
52060000000,-10.45035343
52070000000,-10.45257485
52080000000,-10.45479641
52090000000,-10.45701811
52100000000,-10.45923996
52110000000,-10.46146195
52120000000,-10.46368409
52130000000,-10.46590637
52140000000,-10.46812879
52150000000,-10.47035135
52160000000,-10.47257406
52170000000,-10.47479691
52180000000,-10.4770199
52190000000,-10.47924304
52200000000,-10.48146632
52210000000,-10.48368974
52220000000,-10.48591331
52230000000,-10.48813701
52240000000,-10.49036087
52250000000,-10.49258486
52260000000,-10.494809
52270000000,-10.49703328
52280000000,-10.49925771
52290000000,-10.50148227
52300000000,-10.50370699
52310000000,-10.50593184
52320000000,-10.50815684
52330000000,-10.51038198
52340000000,-10.51260726
52350000000,-10.51483269
52360000000,-10.51705826
52370000000,-10.51928397
52380000000,-10.52150983
52390000000,-10.52373583
52400000000,-10.52596197
52410000000,-10.52818825
52420000000,-10.53041468
52430000000,-10.53264126
52440000000,-10.53486797
52450000000,-10.53709483
52460000000,-10.53932183
52470000000,-10.54154897
52480000000,-10.54377626
52490000000,-10.54600369
52500000000,-10.54823127
52510000000,-10.55045898
52520000000,-10.55268684
52530000000,-10.55491485
52540000000,-10.55714299
52550000000,-10.55937128
52560000000,-10.56159972
52570000000,-10.56382829
52580000000,-10.56605701
52590000000,-10.56828587
52600000000,-10.57051488
52610000000,-10.57274403
52620000000,-10.57497332
52630000000,-10.57720275
52640000000,-10.57943233
52650000000,-10.58166205
52660000000,-10.58389192
52670000000,-10.58612192
52680000000,-10.58835207
52690000000,-10.59058237
52700000000,-10.5928128
52710000000,-10.59504338
52720000000,-10.59727411
52730000000,-10.59950497
52740000000,-10.60173598
52750000000,-10.60396713
52760000000,-10.60619843
52770000000,-10.60842987
52780000000,-10.61066145
52790000000,-10.61289318
52800000000,-10.61512504
52810000000,-10.61735705
52820000000,-10.61958921
52830000000,-10.62182151
52840000000,-10.62405395
52850000000,-10.62628653
52860000000,-10.62851926
52870000000,-10.63075213
52880000000,-10.63298514
52890000000,-10.6352183
52900000000,-10.6374516
52910000000,-10.63968504
52920000000,-10.64191863
52930000000,-10.64415236
52940000000,-10.64638623
52950000000,-10.64862024
52960000000,-10.6508544
52970000000,-10.6530887
52980000000,-10.65532315
52990000000,-10.65755774
53000000000,-10.65979247
53010000000,-10.66202734
53020000000,-10.66426236
53030000000,-10.66649752
53040000000,-10.66873282
53050000000,-10.67096827
53060000000,-10.67320386
53070000000,-10.67543959
53080000000,-10.67767547
53090000000,-10.67991149
53100000000,-10.68214765
53110000000,-10.68438395
53120000000,-10.6866204
53130000000,-10.688857
53140000000,-10.69109373
53150000000,-10.69333061
53160000000,-10.69556763
53170000000,-10.69780479
53180000000,-10.7000421
53190000000,-10.70227955
53200000000,-10.70451715
53210000000,-10.70675488
53220000000,-10.70899276
53230000000,-10.71123079
53240000000,-10.71346895
53250000000,-10.71570726
53260000000,-10.71794571
53270000000,-10.72018431
53280000000,-10.72242305
53290000000,-10.72466193
53300000000,-10.72690096
53310000000,-10.72914013
53320000000,-10.73137944
53330000000,-10.73361889
53340000000,-10.73585849
53350000000,-10.73809823
53360000000,-10.74033811
53370000000,-10.74257814
53380000000,-10.74481831
53390000000,-10.74705863
53400000000,-10.74929908
53410000000,-10.75153968
53420000000,-10.75378043
53430000000,-10.75602131
53440000000,-10.75826234
53450000000,-10.76050351
53460000000,-10.76274483
53470000000,-10.76498629
53480000000,-10.76722789
53490000000,-10.76946963
53500000000,-10.77171152
53510000000,-10.77395355
53520000000,-10.77619573
53530000000,-10.77843804
53540000000,-10.78068051
53550000000,-10.78292311
53560000000,-10.78516586
53570000000,-10.78740875
53580000000,-10.78965178
53590000000,-10.79189496
53600000000,-10.79413828
53610000000,-10.79638174
53620000000,-10.79862534
53630000000,-10.80086909
53640000000,-10.80311299
53650000000,-10.80535702
53660000000,-10.8076012
53670000000,-10.80984552
53680000000,-10.81208998
53690000000,-10.81433459
53700000000,-10.81657934
53710000000,-10.81882424
53720000000,-10.82106927
53730000000,-10.82331446
53740000000,-10.82555978
53750000000,-10.82780525
53760000000,-10.83005086
53770000000,-10.83229661
53780000000,-10.8345425
53790000000,-10.83678854
53800000000,-10.83903473
53810000000,-10.84128105
53820000000,-10.84352752
53830000000,-10.84577413
53840000000,-10.84802089
53850000000,-10.85026778
53860000000,-10.85251483
53870000000,-10.85476201
53880000000,-10.85700934
53890000000,-10.85925681
53900000000,-10.86150442
53910000000,-10.86375218
53920000000,-10.86600008
53930000000,-10.86824812
53940000000,-10.87049631
53950000000,-10.87274464
53960000000,-10.87499311
53970000000,-10.87724173
53980000000,-10.87949049
53990000000,-10.88173939
54000000000,-10.88398843
54010000000,-10.88623762
54020000000,-10.88848695
54030000000,-10.89073643
54040000000,-10.89298605
54050000000,-10.89523581
54060000000,-10.89748571
54070000000,-10.89973576
54080000000,-10.90198595
54090000000,-10.90423628
54100000000,-10.90648676
54110000000,-10.90873738
54120000000,-10.91098814
54130000000,-10.91323905
54140000000,-10.9154901
54150000000,-10.91774129
54160000000,-10.91999262
54170000000,-10.9222441
54180000000,-10.92449572
54190000000,-10.92674749
54200000000,-10.9289994
54210000000,-10.93125145
54220000000,-10.93350364
54230000000,-10.93575598
54240000000,-10.93800846
54250000000,-10.94026108
54260000000,-10.94251385
54270000000,-10.94476676
54280000000,-10.94701981
54290000000,-10.94927301
54300000000,-10.95152635
54310000000,-10.95377983
54320000000,-10.95603346
54330000000,-10.95828723
54340000000,-10.96054114
54350000000,-10.96279519
54360000000,-10.96504939
54370000000,-10.96730373
54380000000,-10.96955822
54390000000,-10.97181285
54400000000,-10.97406762
54410000000,-10.97632253
54420000000,-10.97857759
54430000000,-10.98083279
54440000000,-10.98308813
54450000000,-10.98534362
54460000000,-10.98759925
54470000000,-10.98985502
54480000000,-10.99211094
54490000000,-10.994367
54500000000,-10.9966232
54510000000,-10.99887955
54520000000,-11.00113603
54530000000,-11.00339267
54540000000,-11.00564944
54550000000,-11.00790636
54560000000,-11.01016342
54570000000,-11.01242062
54580000000,-11.01467797
54590000000,-11.01693546
54600000000,-11.0191931
54610000000,-11.02145087
54620000000,-11.02370879
54630000000,-11.02596686
54640000000,-11.02822506
54650000000,-11.03048341
54660000000,-11.0327419
54670000000,-11.03500054
54680000000,-11.03725932
54690000000,-11.03951824
54700000000,-11.04177731
54710000000,-11.04403651
54720000000,-11.04629587
54730000000,-11.04855536
54740000000,-11.050815
54750000000,-11.05307478
54760000000,-11.0553347
54770000000,-11.05759477
54780000000,-11.05985498
54790000000,-11.06211533
54800000000,-11.06437583
54810000000,-11.06663647
54820000000,-11.06889725
54830000000,-11.07115818
54840000000,-11.07341925
54850000000,-11.07568046
54860000000,-11.07794182
54870000000,-11.08020331
54880000000,-11.08246496
54890000000,-11.08472674
54900000000,-11.08698867
54910000000,-11.08925074
54920000000,-11.09151295
54930000000,-11.09377531
54940000000,-11.09603781
54950000000,-11.09830046
54960000000,-11.10056324
54970000000,-11.10282617
54980000000,-11.10508925
54990000000,-11.10735246
55000000000,-11.10961582
55010000000,-11.11187932
55020000000,-11.11414297
55030000000,-11.11640676
55040000000,-11.11867069
55050000000,-11.12093477
55060000000,-11.12319898
55070000000,-11.12546335
55080000000,-11.12772785
55090000000,-11.1299925
55100000000,-11.13225729
55110000000,-11.13452222
55120000000,-11.1367873
55130000000,-11.13905252
55140000000,-11.14131788
55150000000,-11.14358339
55160000000,-11.14584904
55170000000,-11.14811483
55180000000,-11.15038077
55190000000,-11.15264685
55200000000,-11.15491307
55210000000,-11.15717944
55220000000,-11.15944594
55230000000,-11.1617126
55240000000,-11.16397939
55250000000,-11.16624633
55260000000,-11.16851341
55270000000,-11.17078063
55280000000,-11.173048
55290000000,-11.17531551
55300000000,-11.17758317
55310000000,-11.17985096
55320000000,-11.1821189
55330000000,-11.18438699
55340000000,-11.18665521
55350000000,-11.18892358
55360000000,-11.19119209
55370000000,-11.19346075
55380000000,-11.19572955
55390000000,-11.19799849
55400000000,-11.20026758
55410000000,-11.2025368
55420000000,-11.20480618
55430000000,-11.20707569
55440000000,-11.20934535
55450000000,-11.21161515
55460000000,-11.21388509
55470000000,-11.21615518
55480000000,-11.21842541
55490000000,-11.22069578
55500000000,-11.2229663
55510000000,-11.22523696
55520000000,-11.22750776
55530000000,-11.22977871
55540000000,-11.2320498
55550000000,-11.23432103
55560000000,-11.23659241
55570000000,-11.23886392
55580000000,-11.24113559
55590000000,-11.24340739
55600000000,-11.24567934
55610000000,-11.24795143
55620000000,-11.25022366
55630000000,-11.25249604
55640000000,-11.25476856
55650000000,-11.25704123
55660000000,-11.25931403
55670000000,-11.26158698
55680000000,-11.26386007
55690000000,-11.26613331
55700000000,-11.26840669
55710000000,-11.27068021
55720000000,-11.27295388
55730000000,-11.27522769
55740000000,-11.27750164
55750000000,-11.27977573
55760000000,-11.28204997
55770000000,-11.28432435
55780000000,-11.28659888
55790000000,-11.28887355
55800000000,-11.29114836
55810000000,-11.29342331
55820000000,-11.29569841
55830000000,-11.29797365
55840000000,-11.30024903
55850000000,-11.30252456
55860000000,-11.30480023
55870000000,-11.30707604
55880000000,-11.309352
55890000000,-11.3116281
55900000000,-11.31390434
55910000000,-11.31618072
55920000000,-11.31845725
55930000000,-11.32073392
55940000000,-11.32301074
55950000000,-11.3252877
55960000000,-11.3275648
55970000000,-11.32984204
55980000000,-11.33211943
55990000000,-11.33439696
56000000000,-11.33667463
56010000000,-11.33895245
56020000000,-11.34123041
56030000000,-11.34350851
56040000000,-11.34578676
56050000000,-11.34806515
56060000000,-11.35034368
56070000000,-11.35262236
56080000000,-11.35490118
56090000000,-11.35718014
56100000000,-11.35945924
56110000000,-11.36173849
56120000000,-11.36401788
56130000000,-11.36629742
56140000000,-11.36857709
56150000000,-11.37085692
56160000000,-11.37313688
56170000000,-11.37541699
56180000000,-11.37769724
56190000000,-11.37997763
56200000000,-11.38225817
56210000000,-11.38453885
56220000000,-11.38681967
56230000000,-11.38910063
56240000000,-11.39138174
56250000000,-11.393663
56260000000,-11.39594439
56270000000,-11.39822593
56280000000,-11.40050761
56290000000,-11.40278944
56300000000,-11.4050714
56310000000,-11.40735352
56320000000,-11.40963577
56330000000,-11.41191817
56340000000,-11.41420071
56350000000,-11.41648339
56360000000,-11.41876622
56370000000,-11.42104919
56380000000,-11.4233323
56390000000,-11.42561556
56400000000,-11.42789896
56410000000,-11.4301825
56420000000,-11.43246618
56430000000,-11.43475001
56440000000,-11.43703399
56450000000,-11.4393181
56460000000,-11.44160236
56470000000,-11.44388676
56480000000,-11.4461713
56490000000,-11.44845599
56500000000,-11.45074082
56510000000,-11.4530258
56520000000,-11.45531091
56530000000,-11.45759617
56540000000,-11.45988158
56550000000,-11.46216712
56560000000,-11.46445281
56570000000,-11.46673865
56580000000,-11.46902462
56590000000,-11.47131074
56600000000,-11.473597
56610000000,-11.47588341
56620000000,-11.47816996
56630000000,-11.48045665
56640000000,-11.48274348
56650000000,-11.48503046
56660000000,-11.48731758
56670000000,-11.48960485
56680000000,-11.49189225
56690000000,-11.4941798
56700000000,-11.4964675
56710000000,-11.49875533
56720000000,-11.50104331
56730000000,-11.50333144
56740000000,-11.5056197
56750000000,-11.50790811
56760000000,-11.51019667
56770000000,-11.51248536
56780000000,-11.5147742
56790000000,-11.51706318
56800000000,-11.51935231
56810000000,-11.52164157
56820000000,-11.52393099
56830000000,-11.52622054
56840000000,-11.52851024
56850000000,-11.53080008
56860000000,-11.53309006
56870000000,-11.53538019
56880000000,-11.53767046
56890000000,-11.53996087
56900000000,-11.54225143
56910000000,-11.54454213
56920000000,-11.54683297
56930000000,-11.54912396
56940000000,-11.55141509
56950000000,-11.55370636
56960000000,-11.55599777
56970000000,-11.55828933
56980000000,-11.56058103
56990000000,-11.56287288
57000000000,-11.56516487
57010000000,-11.567457
57020000000,-11.56974927
57030000000,-11.57204169
57040000000,-11.57433425
57050000000,-11.57662695
57060000000,-11.5789198
57070000000,-11.58121279
57080000000,-11.58350592
57090000000,-11.5857992
57100000000,-11.58809262
57110000000,-11.59038618
57120000000,-11.59267989
57130000000,-11.59497374
57140000000,-11.59726773
57150000000,-11.59956186
57160000000,-11.60185614
57170000000,-11.60415056
57180000000,-11.60644513
57190000000,-11.60873983
57200000000,-11.61103468
57210000000,-11.61332968
57220000000,-11.61562482
57230000000,-11.6179201
57240000000,-11.62021552
57250000000,-11.62251109
57260000000,-11.62480679
57270000000,-11.62710265
57280000000,-11.62939864
57290000000,-11.63169478
57300000000,-11.63399106
57310000000,-11.63628749
57320000000,-11.63858406
57330000000,-11.64088077
57340000000,-11.64317762
57350000000,-11.64547462
57360000000,-11.64777176
57370000000,-11.65006905
57380000000,-11.65236647
57390000000,-11.65466405
57400000000,-11.65696176
57410000000,-11.65925962
57420000000,-11.66155762
57430000000,-11.66385576
57440000000,-11.66615404
57450000000,-11.66845247
57460000000,-11.67075105
57470000000,-11.67304976
57480000000,-11.67534862
57490000000,-11.67764762
57500000000,-11.67994677
57510000000,-11.68224606
57520000000,-11.68454549
57530000000,-11.68684506
57540000000,-11.68914478
57550000000,-11.69144464
57560000000,-11.69374464
57570000000,-11.69604479
57580000000,-11.69834508
57590000000,-11.70064551
57600000000,-11.70294609
57610000000,-11.70524681
57620000000,-11.70754767
57630000000,-11.70984868
57640000000,-11.71214983
57650000000,-11.71445112
57660000000,-11.71675255
57670000000,-11.71905413
57680000000,-11.72135585
57690000000,-11.72365772
57700000000,-11.72595973
57710000000,-11.72826188
57720000000,-11.73056417
57730000000,-11.73286661
57740000000,-11.73516919
57750000000,-11.73747191
57760000000,-11.73977478
57770000000,-11.74207779
57780000000,-11.74438094
57790000000,-11.74668424
57800000000,-11.74898768
57810000000,-11.75129126
57820000000,-11.75359499
57830000000,-11.75589885
57840000000,-11.75820287
57850000000,-11.76050702
57860000000,-11.76281132
57870000000,-11.76511576
57880000000,-11.76742035
57890000000,-11.76972507
57900000000,-11.77202994
57910000000,-11.77433496
57920000000,-11.77664011
57930000000,-11.77894541
57940000000,-11.78125086
57950000000,-11.78355644
57960000000,-11.78586217
57970000000,-11.78816805
57980000000,-11.79047406
57990000000,-11.79278022
58000000000,-11.79508652
58010000000,-11.79739297
58020000000,-11.79969956
58030000000,-11.80200629
58040000000,-11.80431316
58050000000,-11.80662018
58060000000,-11.80892734
58070000000,-11.81123465
58080000000,-11.81354209
58090000000,-11.81584968
58100000000,-11.81815742
58110000000,-11.82046529
58120000000,-11.82277331
58130000000,-11.82508148
58140000000,-11.82738978
58150000000,-11.82969823
58160000000,-11.83200682
58170000000,-11.83431556
58180000000,-11.83662444
58190000000,-11.83893346
58200000000,-11.84124263
58210000000,-11.84355193
58220000000,-11.84586138
58230000000,-11.84817098
58240000000,-11.85048072
58250000000,-11.8527906
58260000000,-11.85510062
58270000000,-11.85741079
58280000000,-11.8597211
58290000000,-11.86203155
58300000000,-11.86434215
58310000000,-11.86665289
58320000000,-11.86896377
58330000000,-11.8712748
58340000000,-11.87358596
58350000000,-11.87589728
58360000000,-11.87820873
58370000000,-11.88052033
58380000000,-11.88283207
58390000000,-11.88514396
58400000000,-11.88745598
58410000000,-11.88976815
58420000000,-11.89208047
58430000000,-11.89439293
58440000000,-11.89670553
58450000000,-11.89901827
58460000000,-11.90133116
58470000000,-11.90364419
58480000000,-11.90595736
58490000000,-11.90827068
58500000000,-11.91058413
58510000000,-11.91289774
58520000000,-11.91521148
58530000000,-11.91752537
58540000000,-11.9198394
58550000000,-11.92215358
58560000000,-11.9244679
58570000000,-11.92678236
58580000000,-11.92909696
58590000000,-11.93141171
58600000000,-11.9337266
58610000000,-11.93604163
58620000000,-11.93835681
58630000000,-11.94067213
58640000000,-11.94298759
58650000000,-11.9453032
58660000000,-11.94761895
58670000000,-11.94993484
58680000000,-11.95225088
58690000000,-11.95456706
58700000000,-11.95688338
58710000000,-11.95919984
58720000000,-11.96151645
58730000000,-11.9638332
58740000000,-11.9661501
58750000000,-11.96846714
58760000000,-11.97078432
58770000000,-11.97310164
58780000000,-11.97541911
58790000000,-11.97773672
58800000000,-11.98005447
58810000000,-11.98237237
58820000000,-11.98469041
58830000000,-11.98700859
58840000000,-11.98932692
58850000000,-11.99164539
58860000000,-11.993964
58870000000,-11.99628275
58880000000,-11.99860165
58890000000,-12.0009207
58900000000,-12.00323988
58910000000,-12.00555921
58920000000,-12.00787868
58930000000,-12.01019829
58940000000,-12.01251805
58950000000,-12.01483795
58960000000,-12.017158
58970000000,-12.01947818
58980000000,-12.02179851
58990000000,-12.02411899
59000000000,-12.0264396
59010000000,-12.02876036
59020000000,-12.03108126
59030000000,-12.03340231
59040000000,-12.0357235
59050000000,-12.03804483
59060000000,-12.04036631
59070000000,-12.04268792
59080000000,-12.04500969
59090000000,-12.04733159
59100000000,-12.04965364
59110000000,-12.05197583
59120000000,-12.05429816
59130000000,-12.05662064
59140000000,-12.05894326
59150000000,-12.06126602
59160000000,-12.06358893
59170000000,-12.06591198
59180000000,-12.06823517
59190000000,-12.07055851
59200000000,-12.07288199
59210000000,-12.07520561
59220000000,-12.07752938
59230000000,-12.07985328
59240000000,-12.08217734
59250000000,-12.08450153
59260000000,-12.08682587
59270000000,-12.08915035
59280000000,-12.09147497
59290000000,-12.09379974
59300000000,-12.09612465
59310000000,-12.09844971
59320000000,-12.1007749
59330000000,-12.10310024
59340000000,-12.10542573
59350000000,-12.10775135
59360000000,-12.11007712
59370000000,-12.11240303
59380000000,-12.11472909
59390000000,-12.11705529
59400000000,-12.11938163
59410000000,-12.12170812
59420000000,-12.12403475
59430000000,-12.12636152
59440000000,-12.12868843
59450000000,-12.13101549
59460000000,-12.13334269
59470000000,-12.13567003
59480000000,-12.13799752
59490000000,-12.14032515
59500000000,-12.14265292
59510000000,-12.14498084
59520000000,-12.1473089
59530000000,-12.1496371
59540000000,-12.15196545
59550000000,-12.15429394
59560000000,-12.15662257
59570000000,-12.15895135
59580000000,-12.16128027
59590000000,-12.16360933
59600000000,-12.16593853
59610000000,-12.16826788
59620000000,-12.17059737
59630000000,-12.17292701
59640000000,-12.17525678
59650000000,-12.1775867
59660000000,-12.17991677
59670000000,-12.18224697
59680000000,-12.18457732
59690000000,-12.18690782
59700000000,-12.18923845
59710000000,-12.19156923
59720000000,-12.19390016
59730000000,-12.19623122
59740000000,-12.19856243
59750000000,-12.20089378
59760000000,-12.20322528
59770000000,-12.20555692
59780000000,-12.2078887
59790000000,-12.21022062
59800000000,-12.21255269
59810000000,-12.2148849
59820000000,-12.21721725
59830000000,-12.21954975
59840000000,-12.22188239
59850000000,-12.22421517
59860000000,-12.2265481
59870000000,-12.22888117
59880000000,-12.23121438
59890000000,-12.23354774
59900000000,-12.23588124
59910000000,-12.23821488
59920000000,-12.24054867
59930000000,-12.24288259
59940000000,-12.24521667
59950000000,-12.24755088
59960000000,-12.24988524
59970000000,-12.25221974
59980000000,-12.25455438
59990000000,-12.25688917
60000000000,-12.2592241
60010000000,-12.26155918
60020000000,-12.26389439
60030000000,-12.26622975
60040000000,-12.26856526
60050000000,-12.2709009
60060000000,-12.27323669
60070000000,-12.27557262
60080000000,-12.2779087
60090000000,-12.28024492
60100000000,-12.28258128
60110000000,-12.28491779
60120000000,-12.28725443
60130000000,-12.28959123
60140000000,-12.29192816
60150000000,-12.29426524
60160000000,-12.29660246
60170000000,-12.29893982
60180000000,-12.30127733
60190000000,-12.30361498
60200000000,-12.30595277
60210000000,-12.30829071
60220000000,-12.31062879
60230000000,-12.31296701
60240000000,-12.31530538
60250000000,-12.31764389
60260000000,-12.31998254
60270000000,-12.32232134
60280000000,-12.32466027
60290000000,-12.32699936
60300000000,-12.32933858
60310000000,-12.33167795
60320000000,-12.33401746
60330000000,-12.33635711
60340000000,-12.33869691
60350000000,-12.34103685
60360000000,-12.34337694
60370000000,-12.34571716
60380000000,-12.34805753
60390000000,-12.35039805
60400000000,-12.3527387
60410000000,-12.3550795
60420000000,-12.35742044
60430000000,-12.35976153
60440000000,-12.36210276
60450000000,-12.36444413
60460000000,-12.36678564
60470000000,-12.3691273
60480000000,-12.3714691
60490000000,-12.37381105
60500000000,-12.37615314
60510000000,-12.37849537
60520000000,-12.38083774
60530000000,-12.38318026
60540000000,-12.38552292
60550000000,-12.38786572
60560000000,-12.39020867
60570000000,-12.39255176
60580000000,-12.39489499
60590000000,-12.39723837
60600000000,-12.39958189
60610000000,-12.40192555
60620000000,-12.40426935
60630000000,-12.4066133
60640000000,-12.40895739
60650000000,-12.41130163
60660000000,-12.41364601
60670000000,-12.41599053
60680000000,-12.41833519
60690000000,-12.42068
60700000000,-12.42302495
60710000000,-12.42537004
60720000000,-12.42771528
60730000000,-12.43006066
60740000000,-12.43240618
60750000000,-12.43475185
60760000000,-12.43709766
60770000000,-12.43944361
60780000000,-12.44178971
60790000000,-12.44413595
60800000000,-12.44648233
60810000000,-12.44882885
60820000000,-12.45117552
60830000000,-12.45352233
60840000000,-12.45586929
60850000000,-12.45821638
60860000000,-12.46056363
60870000000,-12.46291101
60880000000,-12.46525854
60890000000,-12.46760621
60900000000,-12.46995402
60910000000,-12.47230198
60920000000,-12.47465008
60930000000,-12.47699832
60940000000,-12.4793467
60950000000,-12.48169523
60960000000,-12.48404391
60970000000,-12.48639272
60980000000,-12.48874168
60990000000,-12.49109078
61000000000,-12.49344003
61010000000,-12.49578941
61020000000,-12.49813895
61030000000,-12.50048862
61040000000,-12.50283844
61050000000,-12.5051884
61060000000,-12.5075385
61070000000,-12.50988875
61080000000,-12.51223914
61090000000,-12.51458967
61100000000,-12.51694035
61110000000,-12.51929117
61120000000,-12.52164213
61130000000,-12.52399323
61140000000,-12.52634448
61150000000,-12.52869587
61160000000,-12.53104741
61170000000,-12.53339909
61180000000,-12.53575091
61190000000,-12.53810287
61200000000,-12.54045498
61210000000,-12.54280723
61220000000,-12.54515963
61230000000,-12.54751216
61240000000,-12.54986484
61250000000,-12.55221767
61260000000,-12.55457063
61270000000,-12.55692374
61280000000,-12.559277
61290000000,-12.56163039
61300000000,-12.56398393
61310000000,-12.56633761
61320000000,-12.56869144
61330000000,-12.57104541
61340000000,-12.57339952
61350000000,-12.57575377
61360000000,-12.57810817
61370000000,-12.58046271
61380000000,-12.5828174
61390000000,-12.58517222
61400000000,-12.58752719
61410000000,-12.58988231
61420000000,-12.59223756
61430000000,-12.59459296
61440000000,-12.59694851
61450000000,-12.59930419
61460000000,-12.60166002
61470000000,-12.60401599
61480000000,-12.60637211
61490000000,-12.60872837
61500000000,-12.61108477
61510000000,-12.61344132
61520000000,-12.615798
61530000000,-12.61815484
61540000000,-12.62051181
61550000000,-12.62286893
61560000000,-12.62522619
61570000000,-12.62758359
61580000000,-12.62994114
61590000000,-12.63229883
61600000000,-12.63465666
61610000000,-12.63701464
61620000000,-12.63937276
61630000000,-12.64173102
61640000000,-12.64408943
61650000000,-12.64644798
61660000000,-12.64880667
61670000000,-12.6511655
61680000000,-12.65352448
61690000000,-12.6558836
61700000000,-12.65824287
61710000000,-12.66060228
61720000000,-12.66296183
61730000000,-12.66532152
61740000000,-12.66768136
61750000000,-12.67004134
61760000000,-12.67240146
61770000000,-12.67476173
61780000000,-12.67712214
61790000000,-12.67948269
61800000000,-12.68184339
61810000000,-12.68420423
61820000000,-12.68656521
61830000000,-12.68892634
61840000000,-12.6912876
61850000000,-12.69364902
61860000000,-12.69601057
61870000000,-12.69837227
61880000000,-12.70073411
61890000000,-12.7030961
61900000000,-12.70545822
61910000000,-12.70782049
61920000000,-12.71018291
61930000000,-12.71254546
61940000000,-12.71490816
61950000000,-12.71727101
61960000000,-12.71963399
61970000000,-12.72199712
61980000000,-12.7243604
61990000000,-12.72672381
62000000000,-12.72908737
62010000000,-12.73145107
62020000000,-12.73381492
62030000000,-12.73617891
62040000000,-12.73854304
62050000000,-12.74090731
62060000000,-12.74327173
62070000000,-12.74563629
62080000000,-12.748001
62090000000,-12.75036584
62100000000,-12.75273083
62110000000,-12.75509597
62120000000,-12.75746124
62130000000,-12.75982666
62140000000,-12.76219223
62150000000,-12.76455793
62160000000,-12.76692378
62170000000,-12.76928978
62180000000,-12.77165591
62190000000,-12.77402219
62200000000,-12.77638861
62210000000,-12.77875518
62220000000,-12.78112188
62230000000,-12.78348874
62240000000,-12.78585573
62250000000,-12.78822287
62260000000,-12.79059015
62270000000,-12.79295757
62280000000,-12.79532514
62290000000,-12.79769285
62300000000,-12.8000607
62310000000,-12.8024287
62320000000,-12.80479684
62330000000,-12.80716512
62340000000,-12.80953355
62350000000,-12.81190212
62360000000,-12.81427083
62370000000,-12.81663968
62380000000,-12.81900868
62390000000,-12.82137782
62400000000,-12.82374711
62410000000,-12.82611654
62420000000,-12.82848611
62430000000,-12.83085582
62440000000,-12.83322568
62450000000,-12.83559568
62460000000,-12.83796582
62470000000,-12.84033611
62480000000,-12.84270654
62490000000,-12.84507711
62500000000,-12.84744783
62510000000,-12.84981869
62520000000,-12.85218969
62530000000,-12.85456084
62540000000,-12.85693212
62550000000,-12.85930356
62560000000,-12.86167513
62570000000,-12.86404685
62580000000,-12.86641871
62590000000,-12.86879071
62600000000,-12.87116286
62610000000,-12.87353515
62620000000,-12.87590759
62630000000,-12.87828016
62640000000,-12.88065288
62650000000,-12.88302575
62660000000,-12.88539875
62670000000,-12.8877719
62680000000,-12.8901452
62690000000,-12.89251863
62700000000,-12.89489221
62710000000,-12.89726593
62720000000,-12.8996398
62730000000,-12.90201381
62740000000,-12.90438796
62750000000,-12.90676225
62760000000,-12.90913669
62770000000,-12.91151127
62780000000,-12.91388599
62790000000,-12.91626086
62800000000,-12.91863587
62810000000,-12.92101103
62820000000,-12.92338632
62830000000,-12.92576176
62840000000,-12.92813735
62850000000,-12.93051307
62860000000,-12.93288894
62870000000,-12.93526495
62880000000,-12.93764111
62890000000,-12.94001741
62900000000,-12.94239385
62910000000,-12.94477043
62920000000,-12.94714716
62930000000,-12.94952403
62940000000,-12.95190105
62950000000,-12.95427821
62960000000,-12.95665551
62970000000,-12.95903295
62980000000,-12.96141054
62990000000,-12.96378827
63000000000,-12.96616614
63010000000,-12.96854416
63020000000,-12.97092232
63030000000,-12.97330062
63040000000,-12.97567906
63050000000,-12.97805765
63060000000,-12.98043639
63070000000,-12.98281526
63080000000,-12.98519428
63090000000,-12.98757344
63100000000,-12.98995274
63110000000,-12.99233219
63120000000,-12.99471178
63130000000,-12.99709152
63140000000,-12.99947139
63150000000,-13.00185142
63160000000,-13.00423158
63170000000,-13.00661189
63180000000,-13.00899234
63190000000,-13.01137293
63200000000,-13.01375366
63210000000,-13.01613454
63220000000,-13.01851557
63230000000,-13.02089673
63240000000,-13.02327804
63250000000,-13.02565949
63260000000,-13.02804109
63270000000,-13.03042282
63280000000,-13.03280471
63290000000,-13.03518673
63300000000,-13.0375689
63310000000,-13.03995121
63320000000,-13.04233366
63330000000,-13.04471626
63340000000,-13.047099
63350000000,-13.04948188
63360000000,-13.05186491
63370000000,-13.05424808
63380000000,-13.05663139
63390000000,-13.05901485
63400000000,-13.06139845
63410000000,-13.06378219
63420000000,-13.06616607
63430000000,-13.0685501
63440000000,-13.07093427
63450000000,-13.07331859
63460000000,-13.07570304
63470000000,-13.07808765
63480000000,-13.08047239
63490000000,-13.08285728
63500000000,-13.08524231
63510000000,-13.08762748
63520000000,-13.0900128
63530000000,-13.09239826
63540000000,-13.09478386
63550000000,-13.09716961
63560000000,-13.0995555
63570000000,-13.10194153
63580000000,-13.1043277
63590000000,-13.10671402
63600000000,-13.10910048
63610000000,-13.11148709
63620000000,-13.11387384
63630000000,-13.11626073
63640000000,-13.11864776
63650000000,-13.12103494
63660000000,-13.12342226
63670000000,-13.12580972
63680000000,-13.12819733
63690000000,-13.13058508
63700000000,-13.13297297
63710000000,-13.13536101
63720000000,-13.13774919
63730000000,-13.14013751
63740000000,-13.14252598
63750000000,-13.14491459
63760000000,-13.14730334
63770000000,-13.14969223
63780000000,-13.15208127
63790000000,-13.15447045
63800000000,-13.15685978
63810000000,-13.15924925
63820000000,-13.16163886
63830000000,-13.16402861
63840000000,-13.16641851
63850000000,-13.16880855
63860000000,-13.17119873
63870000000,-13.17358906
63880000000,-13.17597953
63890000000,-13.17837014
63900000000,-13.1807609
63910000000,-13.1831518
63920000000,-13.18554284
63930000000,-13.18793402
63940000000,-13.19032535
63950000000,-13.19271682
63960000000,-13.19510844
63970000000,-13.1975002
63980000000,-13.1998921
63990000000,-13.20228414
64000000000,-13.20467633
64010000000,-13.20706866
64020000000,-13.20946113
64030000000,-13.21185375
64040000000,-13.21424651
64050000000,-13.21663941
64060000000,-13.21903246
64070000000,-13.22142565
64080000000,-13.22381898
64090000000,-13.22621246
64100000000,-13.22860608
64110000000,-13.23099984
64120000000,-13.23339374
64130000000,-13.23578779
64140000000,-13.23818198
64150000000,-13.24057632
64160000000,-13.2429708
64170000000,-13.24536542
64180000000,-13.24776018
64190000000,-13.25015509
64200000000,-13.25255014
64210000000,-13.25494533
64220000000,-13.25734067
64230000000,-13.25973615
64240000000,-13.26213177
64250000000,-13.26452754
64260000000,-13.26692345
64270000000,-13.2693195
64280000000,-13.27171569
64290000000,-13.27411203
64300000000,-13.27650851
64310000000,-13.27890514
64320000000,-13.28130191
64330000000,-13.28369882
64340000000,-13.28609587
64350000000,-13.28849307
64360000000,-13.29089041
64370000000,-13.29328789
64380000000,-13.29568552
64390000000,-13.29808329
64400000000,-13.3004812
64410000000,-13.30287926
64420000000,-13.30527746
64430000000,-13.3076758
64440000000,-13.31007429
64450000000,-13.31247292
64460000000,-13.31487169
64470000000,-13.3172706
64480000000,-13.31966966
64490000000,-13.32206886
64500000000,-13.32446821
64510000000,-13.3268677
64520000000,-13.32926733
64530000000,-13.3316671
64540000000,-13.33406702
64550000000,-13.33646708
64560000000,-13.33886728
64570000000,-13.34126763
64580000000,-13.34366812
64590000000,-13.34606875
64600000000,-13.34846953
64610000000,-13.35087045
64620000000,-13.35327151
64630000000,-13.35567271
64640000000,-13.35807406
64650000000,-13.36047555
64660000000,-13.36287719
64670000000,-13.36527897
64680000000,-13.36768089
64690000000,-13.37008295
64700000000,-13.37248516
64710000000,-13.37488751
64720000000,-13.37729
64730000000,-13.37969264
64740000000,-13.38209542
64750000000,-13.38449834
64760000000,-13.38690141
64770000000,-13.38930462
64780000000,-13.39170797
64790000000,-13.39411147
64800000000,-13.39651511
64810000000,-13.39891889
64820000000,-13.40132281
64830000000,-13.40372688
64840000000,-13.40613109
64850000000,-13.40853545
64860000000,-13.41093995
64870000000,-13.41334459
64880000000,-13.41574937
64890000000,-13.4181543
64900000000,-13.42055937
64910000000,-13.42296458
64920000000,-13.42536994
64930000000,-13.42777544
64940000000,-13.43018108
64950000000,-13.43258687
64960000000,-13.4349928
64970000000,-13.43739887
64980000000,-13.43980508
64990000000,-13.44221144
65000000000,-13.44461794
65010000000,-13.44702459
65020000000,-13.44943138
65030000000,-13.45183831
65040000000,-13.45424538
65050000000,-13.4566526
65060000000,-13.45905996
65070000000,-13.46146746
65080000000,-13.46387511
65090000000,-13.4662829
65100000000,-13.46869083
65110000000,-13.47109891
65120000000,-13.47350713
65130000000,-13.47591549
65140000000,-13.478324
65150000000,-13.48073265
65160000000,-13.48314144
65170000000,-13.48555037
65180000000,-13.48795945
65190000000,-13.49036867
65200000000,-13.49277804
65210000000,-13.49518754
65220000000,-13.49759719
65230000000,-13.50000699
65240000000,-13.50241693
65250000000,-13.50482701
65260000000,-13.50723723
65270000000,-13.5096476
65280000000,-13.51205811
65290000000,-13.51446876
65300000000,-13.51687955
65310000000,-13.51929049
65320000000,-13.52170158
65330000000,-13.5241128
65340000000,-13.52652417
65350000000,-13.52893568
65360000000,-13.53134734
65370000000,-13.53375913
65380000000,-13.53617107
65390000000,-13.53858316
65400000000,-13.54099539
65410000000,-13.54340776
65420000000,-13.54582027
65430000000,-13.54823293
65440000000,-13.55064573
65450000000,-13.55305867
65460000000,-13.55547176
65470000000,-13.55788499
65480000000,-13.56029836
65490000000,-13.56271187
65500000000,-13.56512553
65510000000,-13.56753933
65520000000,-13.56995328
65530000000,-13.57236737
65540000000,-13.5747816
65550000000,-13.57719597
65560000000,-13.57961049
65570000000,-13.58202515
65580000000,-13.58443996
65590000000,-13.5868549
65600000000,-13.58926999
65610000000,-13.59168523
65620000000,-13.5941006
65630000000,-13.59651612
65640000000,-13.59893179
65650000000,-13.60134759
65660000000,-13.60376354
65670000000,-13.60617963
65680000000,-13.60859587
65690000000,-13.61101225
65700000000,-13.61342877
65710000000,-13.61584543
65720000000,-13.61826224
65730000000,-13.62067919
65740000000,-13.62309629
65750000000,-13.62551352
65760000000,-13.6279309
65770000000,-13.63034843
65780000000,-13.63276609
65790000000,-13.6351839
65800000000,-13.63760186
65810000000,-13.64001995
65820000000,-13.64243819
65830000000,-13.64485658
65840000000,-13.6472751
65850000000,-13.64969377
65860000000,-13.65211258
65870000000,-13.65453154
65880000000,-13.65695063
65890000000,-13.65936988
65900000000,-13.66178926
65910000000,-13.66420879
65920000000,-13.66662846
65930000000,-13.66904827
65940000000,-13.67146823
65950000000,-13.67388833
65960000000,-13.67630857
65970000000,-13.67872896
65980000000,-13.68114949
65990000000,-13.68357016
66000000000,-13.68599098
66010000000,-13.68841194
66020000000,-13.69083304
66030000000,-13.69325428
66040000000,-13.69567567
66050000000,-13.6980972
66060000000,-13.70051888
66070000000,-13.7029407
66080000000,-13.70536266
66090000000,-13.70778476
66100000000,-13.71020701
66110000000,-13.7126294
66120000000,-13.71505193
66130000000,-13.71747461
66140000000,-13.71989743
66150000000,-13.72232039
66160000000,-13.7247435
66170000000,-13.72716675
66180000000,-13.72959014
66190000000,-13.73201368
66200000000,-13.73443736
66210000000,-13.73686118
66220000000,-13.73928514
66230000000,-13.74170925
66240000000,-13.7441335
66250000000,-13.7465579
66260000000,-13.74898243
66270000000,-13.75140712
66280000000,-13.75383194
66290000000,-13.75625691
66300000000,-13.75868202
66310000000,-13.76110727
66320000000,-13.76353267
66330000000,-13.76595821
66340000000,-13.76838389
66350000000,-13.77080971
66360000000,-13.77323568
66370000000,-13.7756618
66380000000,-13.77808805
66390000000,-13.78051445
66400000000,-13.78294099
66410000000,-13.78536768
66420000000,-13.7877945
66430000000,-13.79022147
66440000000,-13.79264859
66450000000,-13.79507585
66460000000,-13.79750325
66470000000,-13.79993079
66480000000,-13.80235848
66490000000,-13.80478631
66500000000,-13.80721428
66510000000,-13.8096424
66520000000,-13.81207065
66530000000,-13.81449906
66540000000,-13.8169276
66550000000,-13.81935629
66560000000,-13.82178512
66570000000,-13.8242141
66580000000,-13.82664322
66590000000,-13.82907248
66600000000,-13.83150188
66610000000,-13.83393143
66620000000,-13.83636112
66630000000,-13.83879095
66640000000,-13.84122093
66650000000,-13.84365105
66660000000,-13.84608131
66670000000,-13.84851172
66680000000,-13.85094227
66690000000,-13.85337296
66700000000,-13.8558038
66710000000,-13.85823478
66720000000,-13.8606659
66730000000,-13.86309717
66740000000,-13.86552857
66750000000,-13.86796013
66760000000,-13.87039182
66770000000,-13.87282366
66780000000,-13.87525564
66790000000,-13.87768776
66800000000,-13.88012003
66810000000,-13.88255244
66820000000,-13.88498499
66830000000,-13.88741769
66840000000,-13.88985053
66850000000,-13.89228351
66860000000,-13.89471664
66870000000,-13.89714991
66880000000,-13.89958332
66890000000,-13.90201688
66900000000,-13.90445058
66910000000,-13.90688442
66920000000,-13.9093184
66930000000,-13.91175253
66940000000,-13.9141868
66950000000,-13.91662122
66960000000,-13.91905577
66970000000,-13.92149047
66980000000,-13.92392532
66990000000,-13.92636031
67000000000,-13.92879544
End.,
