Frequency(Hz),Amp(dB)
10000000,0.150460029
20000000,0.149279802
30000000,0.148081501
40000000,0.14687806
50000000,0.145657418
60000000,0.144411822
70000000,0.143141785
80000000,0.141848975
90000000,0.140539514
100000000,0.139214536
110000000,0.137876267
120000000,0.13652688
130000000,0.135159755
140000000,0.133781866
150000000,0.132394329
160000000,0.131002491
170000000,0.129600824
180000000,0.128190025
190000000,0.126764302
200000000,0.125320581
210000000,0.123860111
220000000,0.122387386
230000000,0.120904704
240000000,0.119405748
250000000,0.117883038
260000000,0.11634308
270000000,0.114785455
280000000,0.113215388
290000000,0.11163369
300000000,0.110042606
310000000,0.108443552
320000000,0.106834019
330000000,0.105215806
340000000,0.103585493
350000000,0.101943453
360000000,0.100296364
370000000,0.098632499
380000000,0.09695809
390000000,0.095276325
400000000,0.093587321
410000000,0.091888779
420000000,0.090177511
430000000,0.088456776
440000000,0.086725249
450000000,0.084988434
460000000,0.083248809
470000000,0.081508546
480000000,0.079760041
490000000,0.078004209
500000000,0.076241886
510000000,0.074475628
520000000,0.072706708
530000000,0.070937331
540000000,0.069169882
550000000,0.067403949
560000000,0.065635793
570000000,0.063864889
580000000,0.062093994
590000000,0.060320064
600000000,0.058547385
610000000,0.056775212
620000000,0.055005581
630000000,0.053232638
640000000,0.051459041
650000000,0.049685948
660000000,0.047914488
670000000,0.046147956
680000000,0.044390302
690000000,0.04264321
700000000,0.040904793
710000000,0.039175586
720000000,0.037454237
730000000,0.035741269
740000000,0.034036614
750000000,0.032339856
760000000,0.030649206
770000000,0.028963071
780000000,0.027278757
790000000,0.025598645
800000000,0.023924737
810000000,0.022260478
820000000,0.020605736
830000000,0.018961569
840000000,0.017330709
850000000,0.015710624
860000000,0.014103061
870000000,0.012513265
880000000,0.01093744
890000000,0.009376056
900000000,0.007823859
910000000,0.006278292
920000000,0.00474086
930000000,0.003212609
940000000,0.001697746
950000000,0.000195283
960000000,-0.00129452
970000000,-0.002773415
980000000,-0.004240656
990000000,-0.005696787
1000000000,-0.00713996
1010000000,-0.008571182
1020000000,-0.010021266
1030000000,-0.011482878
1040000000,-0.01292994
1050000000,-0.014416103
1060000000,-0.015891616
1070000000,-0.017338081
1080000000,-0.018775073
1090000000,-0.020213329
1100000000,-0.021629751
1110000000,-0.023021205
1120000000,-0.024401542
1130000000,-0.025766149
1140000000,-0.027114274
1150000000,-0.028451326
1160000000,-0.029784717
1170000000,-0.031095421
1180000000,-0.032391405
1190000000,-0.03367118
1200000000,-0.034935469
1210000000,-0.036189711
1220000000,-0.037426944
1230000000,-0.03865006
1240000000,-0.039858781
1250000000,-0.041054639
1260000000,-0.042235318
1270000000,-0.043406345
1280000000,-0.044569739
1290000000,-0.045730697
1300000000,-0.04688891
1310000000,-0.048042784
1320000000,-0.049183515
1330000000,-0.050319232
1340000000,-0.051446469
1350000000,-0.05256389
1360000000,-0.053680436
1370000000,-0.054790912
1380000000,-0.055885881
1390000000,-0.056973579
1400000000,-0.058052937
1410000000,-0.059120787
1420000000,-0.060191314
1430000000,-0.061269215
1440000000,-0.062329054
1450000000,-0.063378335
1460000000,-0.064431264
1470000000,-0.065477651
1480000000,-0.066517911
1490000000,-0.067558747
1500000000,-0.068596778
1510000000,-0.069629278
1520000000,-0.070657216
1530000000,-0.071675982
1540000000,-0.072683104
1550000000,-0.073692658
1560000000,-0.074708472
1570000000,-0.075725205
1580000000,-0.076736289
1590000000,-0.077740031
1600000000,-0.078734054
1610000000,-0.0797285
1620000000,-0.080729675
1630000000,-0.081731453
1640000000,-0.082729636
1650000000,-0.083726241
1660000000,-0.084721089
1670000000,-0.085718208
1680000000,-0.086712749
1690000000,-0.087707177
1700000000,-0.088698753
1710000000,-0.089692339
1720000000,-0.090683209
1730000000,-0.09167186
1740000000,-0.092659801
1750000000,-0.093646465
1760000000,-0.09463121
1770000000,-0.095613144
1780000000,-0.096592103
1790000000,-0.097571714
1800000000,-0.098554349
1810000000,-0.099535082
1820000000,-0.10052226
1830000000,-0.101513582
1840000000,-0.102499013
1850000000,-0.103482506
1860000000,-0.104462544
1870000000,-0.105440841
1880000000,-0.106423238
1890000000,-0.107408611
1900000000,-0.108394643
1910000000,-0.109376858
1920000000,-0.110356388
1930000000,-0.111333534
1940000000,-0.112310946
1950000000,-0.113285298
1960000000,-0.114265596
1970000000,-0.115249776
1980000000,-0.116236487
1990000000,-0.117231588
2000000000,-0.118223446
2010000000,-0.119216698
2020000000,-0.120207666
2030000000,-0.12119919
2040000000,-0.122194171
2050000000,-0.123185971
2060000000,-0.124169771
2070000000,-0.125140998
2080000000,-0.126102846
2090000000,-0.127063679
2100000000,-0.128023339
2110000000,-0.12898148
2120000000,-0.129941735
2130000000,-0.130897587
2140000000,-0.131854171
2150000000,-0.132814075
2160000000,-0.133782875
2170000000,-0.134756577
2180000000,-0.135731634
2190000000,-0.136702991
2200000000,-0.137664618
2210000000,-0.138620802
2220000000,-0.139576056
2230000000,-0.140530363
2240000000,-0.141477723
2250000000,-0.142413544
2260000000,-0.143336471
2270000000,-0.144252729
2280000000,-0.145169038
2290000000,-0.146084749
2300000000,-0.14700152
2310000000,-0.147921556
2320000000,-0.148837677
2330000000,-0.149752329
2340000000,-0.150662489
2350000000,-0.151573496
2360000000,-0.152485274
2370000000,-0.153393247
2380000000,-0.15429811
2390000000,-0.155200277
2400000000,-0.156099058
2410000000,-0.156995282
2420000000,-0.157884578
2430000000,-0.158770231
2440000000,-0.159648474
2450000000,-0.160522752
2460000000,-0.161390094
2470000000,-0.162256105
2480000000,-0.163116807
2490000000,-0.163973725
2500000000,-0.164827402
2510000000,-0.165677398
2520000000,-0.166525824
2530000000,-0.167374199
2540000000,-0.168226951
2550000000,-0.169084469
2560000000,-0.169941806
2570000000,-0.170794738
2580000000,-0.171642117
2590000000,-0.172480969
2600000000,-0.173316868
2610000000,-0.17414778
2620000000,-0.174976635
2630000000,-0.175797794
2640000000,-0.17661423
2650000000,-0.177423758
2660000000,-0.178229684
2670000000,-0.179037722
2680000000,-0.1798522
2690000000,-0.180675859
2700000000,-0.18150113
2710000000,-0.182328668
2720000000,-0.183155267
2730000000,-0.183981011
2740000000,-0.184809581
2750000000,-0.185636733
2760000000,-0.18646159
2770000000,-0.187282684
2780000000,-0.188096672
2790000000,-0.188904373
2800000000,-0.189712925
2810000000,-0.190523704
2820000000,-0.191335293
2830000000,-0.192147172
2840000000,-0.192959798
2850000000,-0.193776421
2860000000,-0.194596721
2870000000,-0.1954263
2880000000,-0.196260376
2890000000,-0.197100432
2900000000,-0.197941679
2910000000,-0.19878346
2920000000,-0.199628799
2930000000,-0.200479122
2940000000,-0.201332528
2950000000,-0.202190129
2960000000,-0.203051345
2970000000,-0.203911239
2980000000,-0.204772828
2990000000,-0.20563313
3000000000,-0.206497638
3010000000,-0.207366813
3020000000,-0.208235755
3030000000,-0.209104711
3040000000,-0.209977273
3050000000,-0.210854793
3060000000,-0.21173923
3070000000,-0.212631586
3080000000,-0.213533433
3090000000,-0.214443079
3100000000,-0.21536008
3110000000,-0.216281706
3120000000,-0.217207306
3130000000,-0.218133446
3140000000,-0.219061574
3150000000,-0.219988918
3160000000,-0.220907898
3170000000,-0.221822766
3180000000,-0.222739405
3190000000,-0.223659956
3200000000,-0.224587059
3210000000,-0.225519216
3220000000,-0.22645762
3230000000,-0.227399229
3240000000,-0.228351184
3250000000,-0.229314343
3260000000,-0.230287453
3270000000,-0.231265648
3280000000,-0.232241129
3290000000,-0.23320791
3300000000,-0.234171296
3310000000,-0.235134068
3320000000,-0.236096916
3330000000,-0.237057038
3340000000,-0.238017071
3350000000,-0.238973491
3360000000,-0.239928944
3370000000,-0.240888338
3380000000,-0.241856474
3390000000,-0.242824721
3400000000,-0.243796963
3410000000,-0.244767993
3420000000,-0.245735632
3430000000,-0.246702447
3440000000,-0.247670592
3450000000,-0.2486421
3460000000,-0.249616545
3470000000,-0.250588753
3480000000,-0.251559943
3490000000,-0.25252614
3500000000,-0.253490746
3510000000,-0.254455603
3520000000,-0.255419908
3530000000,-0.256381815
3540000000,-0.257339641
3550000000,-0.258287669
3560000000,-0.25922753
3570000000,-0.260167073
3580000000,-0.261107746
3590000000,-0.26204985
3600000000,-0.262996609
3610000000,-0.263944868
3620000000,-0.264890775
3630000000,-0.265836667
3640000000,-0.26678694
3650000000,-0.267736382
3660000000,-0.268683353
3670000000,-0.269618905
3680000000,-0.270545428
3690000000,-0.271463335
3700000000,-0.272373288
3710000000,-0.273275504
3720000000,-0.274174738
3730000000,-0.275070173
3740000000,-0.275962893
3750000000,-0.27685543
3760000000,-0.277750035
3770000000,-0.278649287
3780000000,-0.279549461
3790000000,-0.280445202
3800000000,-0.281336691
3810000000,-0.282219027
3820000000,-0.283092465
3830000000,-0.283959624
3840000000,-0.284823959
3850000000,-0.285681185
3860000000,-0.286530246
3870000000,-0.287371867
3880000000,-0.288207513
3890000000,-0.289039708
3900000000,-0.289868289
3910000000,-0.29069621
3920000000,-0.291518059
3930000000,-0.292331445
3940000000,-0.293140558
3950000000,-0.293948023
3960000000,-0.29475004
3970000000,-0.295546538
3980000000,-0.296337452
3990000000,-0.297121795
4000000000,-0.297902706
4010000000,-0.298680346
4020000000,-0.299457444
4030000000,-0.300228563
4040000000,-0.300994396
4050000000,-0.301751971
4060000000,-0.302501556
4070000000,-0.303248908
4080000000,-0.303992472
4090000000,-0.304731498
4100000000,-0.305463336
4110000000,-0.306189456
4120000000,-0.306908921
4130000000,-0.307625047
4140000000,-0.308335809
4150000000,-0.309044999
4160000000,-0.30974764
4170000000,-0.310441953
4180000000,-0.311131613
4190000000,-0.311813626
4200000000,-0.312494966
4210000000,-0.313170747
4220000000,-0.313837392
4230000000,-0.314500228
4240000000,-0.315155616
4250000000,-0.315805076
4260000000,-0.316451334
4270000000,-0.317093703
4280000000,-0.317727729
4290000000,-0.318357863
4300000000,-0.318978018
4310000000,-0.319585754
4320000000,-0.320189395
4330000000,-0.320787932
4340000000,-0.321385179
4350000000,-0.321975934
4360000000,-0.322562111
4370000000,-0.323139378
4380000000,-0.323712267
4390000000,-0.324282862
4400000000,-0.3248495
4410000000,-0.325412027
4420000000,-0.325969297
4430000000,-0.326517418
4440000000,-0.327056659
4450000000,-0.327588767
4460000000,-0.328122223
4470000000,-0.328652625
4480000000,-0.329177284
4490000000,-0.329699241
4500000000,-0.330215234
4510000000,-0.330729172
4520000000,-0.331243666
4530000000,-0.331756208
4540000000,-0.332265727
4550000000,-0.332767562
4560000000,-0.333259141
4570000000,-0.333741485
4580000000,-0.334219933
4590000000,-0.33469414
4600000000,-0.335164498
4610000000,-0.335632316
4620000000,-0.336094924
4630000000,-0.336555117
4640000000,-0.337013617
4650000000,-0.337473494
4660000000,-0.337936246
4670000000,-0.338398637
4680000000,-0.338856229
4690000000,-0.339304718
4700000000,-0.339744281
4710000000,-0.340176939
4720000000,-0.340605574
4730000000,-0.3410306
4740000000,-0.34144847
4750000000,-0.341862279
4760000000,-0.342272022
4770000000,-0.342678377
4780000000,-0.343083989
4790000000,-0.343493223
4800000000,-0.34390082
4810000000,-0.344306497
4820000000,-0.344711281
4830000000,-0.345114211
4840000000,-0.345517469
4850000000,-0.3459158
4860000000,-0.346309048
4870000000,-0.346695771
4880000000,-0.347078655
4890000000,-0.34745486
4900000000,-0.347825236
4910000000,-0.348192242
4920000000,-0.348552589
4930000000,-0.348905243
4940000000,-0.349259497
4950000000,-0.349609359
4960000000,-0.349960654
4970000000,-0.350315183
4980000000,-0.350670268
4990000000,-0.351027563
5000000000,-0.351383455
5010000000,-0.351735574
5020000000,-0.352086835
5030000000,-0.352437906
5040000000,-0.352785463
5050000000,-0.35312659
5060000000,-0.353463421
5070000000,-0.353791726
5080000000,-0.354112797
5090000000,-0.354430543
5100000000,-0.354745139
5110000000,-0.355061297
5120000000,-0.355378152
5130000000,-0.355694509
5140000000,-0.356012742
5150000000,-0.356332458
5160000000,-0.356657026
5170000000,-0.356985046
5180000000,-0.357314148
5190000000,-0.357641103
5200000000,-0.357964384
5210000000,-0.35828633
5220000000,-0.35860255
5230000000,-0.35891758
5240000000,-0.359229908
5250000000,-0.359534549
5260000000,-0.359830405
5270000000,-0.360121379
5280000000,-0.3604116
5290000000,-0.360704492
5300000000,-0.360997575
5310000000,-0.361293314
5320000000,-0.361592017
5330000000,-0.361892051
5340000000,-0.362196245
5350000000,-0.362504952
5360000000,-0.362816054
5370000000,-0.363127368
5380000000,-0.363435795
5390000000,-0.363741904
5400000000,-0.364041086
5410000000,-0.364334509
5420000000,-0.364624934
5430000000,-0.364909851
5440000000,-0.365188259
5450000000,-0.36546123
5460000000,-0.36573117
5470000000,-0.366002109
5480000000,-0.366276178
5490000000,-0.366554352
5500000000,-0.366835001
5510000000,-0.367116489
5520000000,-0.367401273
5530000000,-0.367687999
5540000000,-0.367977622
5550000000,-0.368267979
5560000000,-0.368558377
5570000000,-0.368845175
5580000000,-0.369127394
5590000000,-0.369405668
5600000000,-0.36967728
5610000000,-0.369943079
5620000000,-0.370208308
5630000000,-0.370471459
5640000000,-0.370731113
5650000000,-0.370990997
5660000000,-0.371253587
5670000000,-0.371521425
5680000000,-0.371795057
5690000000,-0.372074655
5700000000,-0.372360507
5710000000,-0.372649381
5720000000,-0.372941573
5730000000,-0.373234091
5740000000,-0.37352784
5750000000,-0.373820469
5760000000,-0.374110492
5770000000,-0.374393811
5780000000,-0.374675861
5790000000,-0.374955759
5800000000,-0.375235811
5810000000,-0.375517494
5820000000,-0.375800433
5830000000,-0.376086112
5840000000,-0.376376433
5850000000,-0.376673331
5860000000,-0.376976162
5870000000,-0.377284812
5880000000,-0.377596086
5890000000,-0.377910285
5900000000,-0.378228349
5910000000,-0.378546027
5920000000,-0.378869603
5930000000,-0.379196181
5940000000,-0.379523151
5950000000,-0.379847268
5960000000,-0.380171336
5970000000,-0.380497185
5980000000,-0.380825879
5990000000,-0.381157295
6000000000,-0.381493291
6010000000,-0.381834283
6020000000,-0.382178605
6030000000,-0.382529124
6040000000,-0.382889962
6050000000,-0.383263941
6060000000,-0.38365096
6070000000,-0.384047279
6080000000,-0.384449603
6090000000,-0.384854358
6100000000,-0.385265245
6110000000,-0.38568295
6120000000,-0.386104327
6130000000,-0.386527653
6140000000,-0.386954689
6150000000,-0.387380245
6160000000,-0.387809251
6170000000,-0.388245578
6180000000,-0.388691618
6190000000,-0.3891505
6200000000,-0.389619452
6210000000,-0.390098646
6220000000,-0.390590091
6230000000,-0.391087962
6240000000,-0.391595636
6250000000,-0.392109467
6260000000,-0.392631926
6270000000,-0.393155922
6280000000,-0.393680889
6290000000,-0.394203552
6300000000,-0.394733031
6310000000,-0.395272465
6320000000,-0.395817746
6330000000,-0.39636851
6340000000,-0.396920274
6350000000,-0.397475176
6360000000,-0.398033584
6370000000,-0.398597644
6380000000,-0.399167695
6390000000,-0.399741561
6400000000,-0.40032199
6410000000,-0.400904543
6420000000,-0.401494479
6430000000,-0.402094025
6440000000,-0.402706625
6450000000,-0.403332791
6460000000,-0.403964451
6470000000,-0.404596931
6480000000,-0.405232507
6490000000,-0.405867305
6500000000,-0.406503273
6510000000,-0.40713813
6520000000,-0.407766944
6530000000,-0.408394161
6540000000,-0.409018211
6550000000,-0.409643751
6560000000,-0.410280815
6570000000,-0.410931957
6580000000,-0.411593413
6590000000,-0.412264373
6600000000,-0.41293947
6610000000,-0.413619701
6620000000,-0.414302008
6630000000,-0.414984392
6640000000,-0.415666811
6650000000,-0.416343268
6660000000,-0.417009794
6670000000,-0.417668209
6680000000,-0.418323742
6690000000,-0.418982907
6700000000,-0.419647168
6710000000,-0.420314614
6720000000,-0.420984453
6730000000,-0.421657181
6740000000,-0.422332403
6750000000,-0.423010809
6760000000,-0.423692023
6770000000,-0.424373382
6780000000,-0.425052291
6790000000,-0.425725976
6800000000,-0.426393973
6810000000,-0.42705973
6820000000,-0.427725064
6830000000,-0.42839063
6840000000,-0.42905587
6850000000,-0.429719432
6860000000,-0.43038441
6870000000,-0.431049867
6880000000,-0.431714263
6890000000,-0.432378946
6900000000,-0.433040524
6910000000,-0.433698505
6920000000,-0.434357065
6930000000,-0.435016587
6940000000,-0.435676185
6950000000,-0.436339998
6960000000,-0.437003712
6970000000,-0.437666667
6980000000,-0.438330642
6990000000,-0.438994932
7000000000,-0.439655798
7010000000,-0.440314446
7020000000,-0.440969995
7030000000,-0.441619738
7040000000,-0.442260367
7050000000,-0.442897191
7060000000,-0.443529563
7070000000,-0.444163094
7080000000,-0.444796116
7090000000,-0.445426237
7100000000,-0.446056438
7110000000,-0.44668784
7120000000,-0.447319059
7130000000,-0.447953786
7140000000,-0.448586712
7150000000,-0.449217584
7160000000,-0.449842871
7170000000,-0.450461271
7180000000,-0.451073784
7190000000,-0.451682537
7200000000,-0.452288718
7210000000,-0.452890192
7220000000,-0.453489361
7230000000,-0.454081365
7240000000,-0.454668671
7250000000,-0.455257377
7260000000,-0.455848128
7270000000,-0.456439023
7280000000,-0.457028694
7290000000,-0.457613446
7300000000,-0.458196157
7310000000,-0.458772202
7320000000,-0.459344551
7330000000,-0.459913271
7340000000,-0.460475124
7350000000,-0.461028895
7360000000,-0.461577722
7370000000,-0.462120845
7380000000,-0.462660031
7390000000,-0.463194611
7400000000,-0.463726985
7410000000,-0.464255882
7420000000,-0.46478187
7430000000,-0.465305121
7440000000,-0.465827326
7450000000,-0.466347127
7460000000,-0.466863661
7470000000,-0.467374979
7480000000,-0.467876834
7490000000,-0.468370804
7500000000,-0.468859585
7510000000,-0.469342399
7520000000,-0.469818143
7530000000,-0.470287215
7540000000,-0.470748503
7550000000,-0.471200326
7560000000,-0.47164536
7570000000,-0.47208476
7580000000,-0.472517071
7590000000,-0.472944136
7600000000,-0.473366256
7610000000,-0.473783543
7620000000,-0.474192288
7630000000,-0.474594413
7640000000,-0.474990902
7650000000,-0.475382317
7660000000,-0.475766918
7670000000,-0.476145832
7680000000,-0.476517359
7690000000,-0.476878476
7700000000,-0.477231373
7710000000,-0.477576569
7720000000,-0.477915919
7730000000,-0.478246431
7740000000,-0.478569804
7750000000,-0.47888308
7760000000,-0.479186461
7770000000,-0.47948526
7780000000,-0.479777034
7790000000,-0.480065716
7800000000,-0.480347465
7810000000,-0.480622431
7820000000,-0.480889584
7830000000,-0.481149042
7840000000,-0.481402295
7850000000,-0.481648926
7860000000,-0.481887906
7870000000,-0.482120023
7880000000,-0.482343033
7890000000,-0.482555575
7900000000,-0.482760498
7910000000,-0.482958946
7920000000,-0.483149838
7930000000,-0.483332905
7940000000,-0.483507843
7950000000,-0.483677096
7960000000,-0.4838392
7970000000,-0.483994616
7980000000,-0.484142917
7990000000,-0.484286624
8000000000,-0.484424397
8010000000,-0.484555066
8020000000,-0.484678712
8030000000,-0.484795588
8040000000,-0.484905671
8050000000,-0.485009449
8060000000,-0.485106225
8070000000,-0.485196912
8080000000,-0.485280836
8090000000,-0.485358395
8100000000,-0.485431285
8110000000,-0.485497771
8120000000,-0.485558996
8130000000,-0.485616876
8140000000,-0.485670281
8150000000,-0.485719824
8160000000,-0.485767942
8170000000,-0.485813797
8180000000,-0.48585731
8190000000,-0.485897347
8200000000,-0.485934622
8210000000,-0.485969777
8220000000,-0.486004023
8230000000,-0.486038508
8240000000,-0.486075806
8250000000,-0.486116904
8260000000,-0.486157256
8270000000,-0.486196551
8280000000,-0.486238276
8290000000,-0.486286613
8300000000,-0.486336854
8310000000,-0.486387782
8320000000,-0.48644016
8330000000,-0.486493265
8340000000,-0.486549444
8350000000,-0.48660917
8360000000,-0.486678937
8370000000,-0.486757754
8380000000,-0.486842101
8390000000,-0.486934459
8400000000,-0.48703245
8410000000,-0.487138037
8420000000,-0.487251962
8430000000,-0.487373832
8440000000,-0.487498104
8450000000,-0.487622467
8460000000,-0.487750142
8470000000,-0.48788703
8480000000,-0.488029489
8490000000,-0.48818082
8500000000,-0.48834534
8510000000,-0.488520558
8520000000,-0.488710441
8530000000,-0.48891237
8540000000,-0.489129036
8550000000,-0.489358864
8560000000,-0.489599228
8570000000,-0.489848648
8580000000,-0.490108291
8590000000,-0.490378224
8600000000,-0.490658953
8610000000,-0.490952556
8620000000,-0.491260356
8630000000,-0.491582313
8640000000,-0.491916806
8650000000,-0.492268188
8660000000,-0.492637583
8670000000,-0.493022889
8680000000,-0.493424851
8690000000,-0.493841313
8700000000,-0.494275098
8710000000,-0.494723786
8720000000,-0.495188986
8730000000,-0.49566865
8740000000,-0.496163011
8750000000,-0.496673762
8760000000,-0.497200962
8770000000,-0.497744945
8780000000,-0.498303296
8790000000,-0.49887557
8800000000,-0.499460806
8810000000,-0.500058505
8820000000,-0.50066904
8830000000,-0.501292215
8840000000,-0.501927459
8850000000,-0.502574123
8860000000,-0.503231992
8870000000,-0.503904083
8880000000,-0.504591311
8890000000,-0.505293683
8900000000,-0.506013929
8910000000,-0.50674808
8920000000,-0.507493041
8930000000,-0.508249848
8940000000,-0.509017206
8950000000,-0.509793119
8960000000,-0.510577449
8970000000,-0.511370342
8980000000,-0.512169174
8990000000,-0.512974569
9000000000,-0.513790883
9010000000,-0.514618053
9020000000,-0.515458391
9030000000,-0.51631193
9040000000,-0.517175432
9050000000,-0.518049932
9060000000,-0.51893306
9070000000,-0.519821483
9080000000,-0.520714772
9090000000,-0.521615522
9100000000,-0.522518961
9110000000,-0.523423968
9120000000,-0.524330665
9130000000,-0.525235555
9140000000,-0.526143362
9150000000,-0.527052004
9160000000,-0.527966331
9170000000,-0.528884128
9180000000,-0.529802888
9190000000,-0.530724272
9200000000,-0.531646186
9210000000,-0.53256791
9220000000,-0.533491908
9230000000,-0.53441424
9240000000,-0.535331732
9250000000,-0.536245478
9260000000,-0.537156431
9270000000,-0.538062714
9280000000,-0.538962611
9290000000,-0.539859825
9300000000,-0.540750315
9310000000,-0.541635558
9320000000,-0.542515741
9330000000,-0.543389407
9340000000,-0.544257044
9350000000,-0.545116477
9360000000,-0.54596697
9370000000,-0.546806478
9380000000,-0.547634078
9390000000,-0.548455197
9400000000,-0.549267148
9410000000,-0.550070822
9420000000,-0.550864525
9430000000,-0.55165
9440000000,-0.552425289
9450000000,-0.553189196
9460000000,-0.553942872
9470000000,-0.554685264
9480000000,-0.555416729
9490000000,-0.55613786
9500000000,-0.556844238
9510000000,-0.557538522
9520000000,-0.55822015
9530000000,-0.558889074
9540000000,-0.559546283
9550000000,-0.560193893
9560000000,-0.5608308
9570000000,-0.561454724
9580000000,-0.562068962
9590000000,-0.562669146
9600000000,-0.563256731
9610000000,-0.563832449
9620000000,-0.564392009
9630000000,-0.564939539
9640000000,-0.565474076
9650000000,-0.565997316
9660000000,-0.566510645
9670000000,-0.567010258
9680000000,-0.567498258
9690000000,-0.567974298
9700000000,-0.568437601
9710000000,-0.5688889
9720000000,-0.569326138
9730000000,-0.569752744
9740000000,-0.570166624
9750000000,-0.570569631
9760000000,-0.570962299
9770000000,-0.571345073
9780000000,-0.571718721
9790000000,-0.572084412
9800000000,-0.572443423
9810000000,-0.57279594
9820000000,-0.573143351
9830000000,-0.573480968
9840000000,-0.573808106
9850000000,-0.574124463
9860000000,-0.574429119
9870000000,-0.574720065
9880000000,-0.575001423
9890000000,-0.575274715
9900000000,-0.575537757
9910000000,-0.575792176
9920000000,-0.576038634
9930000000,-0.576280163
9940000000,-0.576518643
9950000000,-0.57675247
9960000000,-0.576982086
9970000000,-0.577207563
9980000000,-0.577427091
9990000000,-0.577638389
10000000000,-0.57784228
10010000000,-0.578040075
10020000000,-0.578230462
10030000000,-0.578413831
10040000000,-0.578587289
10050000000,-0.578751364
10060000000,-0.578909326
10070000000,-0.579061995
10080000000,-0.579214468
10090000000,-0.579365519
10100000000,-0.579513748
10110000000,-0.57966066
10120000000,-0.579806328
10130000000,-0.579951016
10140000000,-0.580095374
10150000000,-0.580241467
10160000000,-0.580383289
10170000000,-0.580519139
10180000000,-0.580646512
10190000000,-0.580766286
10200000000,-0.580879104
10210000000,-0.580986642
10220000000,-0.58109176
10230000000,-0.581194157
10240000000,-0.581293045
10250000000,-0.581388468
10260000000,-0.581485028
10270000000,-0.581584412
10280000000,-0.581688568
10290000000,-0.581792543
10300000000,-0.581897484
10310000000,-0.581999287
10320000000,-0.582097608
10330000000,-0.582193879
10340000000,-0.58228774
10350000000,-0.582379142
10360000000,-0.58246381
10370000000,-0.582543179
10380000000,-0.582620251
10390000000,-0.582695057
10400000000,-0.582771429
10410000000,-0.582848019
10420000000,-0.582922336
10430000000,-0.582995939
10440000000,-0.583071209
10450000000,-0.583150196
10460000000,-0.583232856
10470000000,-0.583319741
10480000000,-0.583410342
10490000000,-0.58350126
10500000000,-0.583588548
10510000000,-0.583675485
10520000000,-0.583759306
10530000000,-0.583843419
10540000000,-0.583925694
10550000000,-0.584007999
10560000000,-0.584086633
10570000000,-0.584166469
10580000000,-0.584247533
10590000000,-0.58433081
10600000000,-0.584420322
10610000000,-0.584513881
10620000000,-0.58461279
10630000000,-0.584716944
10640000000,-0.584825559
10650000000,-0.584939732
10660000000,-0.585058518
10670000000,-0.585180883
10680000000,-0.585303985
10690000000,-0.585426695
10700000000,-0.58555064
10710000000,-0.585675844
10720000000,-0.585802533
10730000000,-0.585935655
10740000000,-0.586072982
10750000000,-0.586212974
10760000000,-0.586355919
10770000000,-0.586505385
10780000000,-0.586664711
10790000000,-0.58683396
10800000000,-0.587015151
10810000000,-0.587204499
10820000000,-0.587399804
10830000000,-0.587601581
10840000000,-0.587810235
10850000000,-0.588027452
10860000000,-0.588252262
10870000000,-0.58848012
10880000000,-0.588709919
10890000000,-0.588943425
10900000000,-0.589182232
10910000000,-0.589428144
10920000000,-0.589684105
10930000000,-0.589949261
10940000000,-0.590222
10950000000,-0.590504179
10960000000,-0.590796003
10970000000,-0.591098912
10980000000,-0.591412892
10990000000,-0.591737455
11000000000,-0.592072369
11010000000,-0.59241376
11020000000,-0.592757997
11030000000,-0.593108335
11040000000,-0.593468965
11050000000,-0.593838628
11060000000,-0.594217325
11070000000,-0.5946053
11080000000,-0.595005394
11090000000,-0.595413899
11100000000,-0.595833652
11110000000,-0.596265659
11120000000,-0.596706472
11130000000,-0.597157494
11140000000,-0.597615146
11150000000,-0.598079555
11160000000,-0.598550723
11170000000,-0.599031489
11180000000,-0.599521435
11190000000,-0.600020184
11200000000,-0.600525896
11210000000,-0.601039779
11220000000,-0.601559241
11230000000,-0.602089927
11240000000,-0.602631883
11250000000,-0.603186316
11260000000,-0.603749177
11270000000,-0.604319335
11280000000,-0.604898796
11290000000,-0.60548247
11300000000,-0.606073074
11310000000,-0.60667134
11320000000,-0.607273937
11330000000,-0.607882663
11340000000,-0.608495358
11350000000,-0.609114109
11360000000,-0.609735998
11370000000,-0.610363554
11380000000,-0.610999063
11390000000,-0.61164063
11400000000,-0.612285172
11410000000,-0.612931374
11420000000,-0.613579365
11430000000,-0.614230824
11440000000,-0.614886468
11450000000,-0.615546153
11460000000,-0.616206739
11470000000,-0.616868637
11480000000,-0.617529482
11490000000,-0.618189623
11500000000,-0.618850598
11510000000,-0.619511473
11520000000,-0.62017577
11530000000,-0.62084014
11540000000,-0.62150268
11550000000,-0.622160321
11560000000,-0.622816442
11570000000,-0.623471708
11580000000,-0.624124555
11590000000,-0.624775798
11600000000,-0.625424959
11610000000,-0.626066594
11620000000,-0.626706669
11630000000,-0.627342092
11640000000,-0.627972803
11650000000,-0.628597345
11660000000,-0.629212746
11670000000,-0.629821768
11680000000,-0.630421051
11690000000,-0.6310122
11700000000,-0.631595138
11710000000,-0.632169554
11720000000,-0.63273328
11730000000,-0.633287729
11740000000,-0.633831649
11750000000,-0.634365176
11760000000,-0.634889652
11770000000,-0.635404714
11780000000,-0.6359079
11790000000,-0.636401356
11800000000,-0.636882003
11810000000,-0.637351523
11820000000,-0.637806524
11830000000,-0.638252002
11840000000,-0.638685984
11850000000,-0.639108953
11860000000,-0.639521861
11870000000,-0.639923903
11880000000,-0.640312494
11890000000,-0.640688511
11900000000,-0.641052373
11910000000,-0.64140561
11920000000,-0.641747255
11930000000,-0.642077541
11940000000,-0.642392593
11950000000,-0.642694055
11960000000,-0.642981934
11970000000,-0.643259272
11980000000,-0.643524704
11990000000,-0.643779565
12000000000,-0.644022187
12010000000,-0.6442486
12020000000,-0.64446226
12030000000,-0.64466233
12040000000,-0.644853746
12050000000,-0.645035455
12060000000,-0.645200811
12070000000,-0.645353284
12080000000,-0.645491101
12090000000,-0.64561218
12100000000,-0.645719089
12110000000,-0.645814475
12120000000,-0.645895508
12130000000,-0.645960355
12140000000,-0.64600992
12150000000,-0.646043199
12160000000,-0.646062714
12170000000,-0.646076074
12180000000,-0.646083044
12190000000,-0.646084295
12200000000,-0.646076283
12210000000,-0.646058263
12220000000,-0.646027914
12230000000,-0.645986818
12240000000,-0.645935185
12250000000,-0.645871777
12260000000,-0.645795105
12270000000,-0.645703982
12280000000,-0.645596907
12290000000,-0.645478062
12300000000,-0.645348833
12310000000,-0.645212901
12320000000,-0.645072148
12330000000,-0.644924452
12340000000,-0.644768714
12350000000,-0.644609173
12360000000,-0.644444288
12370000000,-0.644274243
12380000000,-0.644096138
12390000000,-0.643909586
12400000000,-0.643712809
12410000000,-0.643507101
12420000000,-0.643295071
12430000000,-0.643075157
12440000000,-0.642850772
12450000000,-0.642618562
12460000000,-0.64237448
12470000000,-0.642123936
12480000000,-0.641867142
12490000000,-0.64160789
12500000000,-0.641349333
12510000000,-0.64109046
12520000000,-0.64082849
12530000000,-0.640564369
12540000000,-0.640299011
12550000000,-0.640031916
12560000000,-0.639765036
12570000000,-0.639493324
12580000000,-0.639217151
12590000000,-0.638933899
12600000000,-0.638643257
12610000000,-0.638346398
12620000000,-0.638045469
12630000000,-0.637740768
12640000000,-0.637434712
12650000000,-0.637125761
12660000000,-0.636817643
12670000000,-0.636512598
12680000000,-0.636213286
12690000000,-0.63592003
12700000000,-0.635630088
12710000000,-0.635346086
12720000000,-0.635060616
12730000000,-0.634774292
12740000000,-0.634490178
12750000000,-0.634208851
12760000000,-0.633931169
12770000000,-0.633654771
12780000000,-0.633380606
12790000000,-0.633108538
12800000000,-0.632838602
12810000000,-0.632574093
12820000000,-0.632317077
12830000000,-0.632064973
12840000000,-0.631819217
12850000000,-0.631579613
12860000000,-0.631346458
12870000000,-0.631121779
12880000000,-0.630906609
12890000000,-0.630699859
12900000000,-0.630500599
12910000000,-0.630307508
12920000000,-0.630122407
12930000000,-0.629945161
12940000000,-0.629775922
12950000000,-0.629614147
12960000000,-0.629455838
12970000000,-0.6293048
12980000000,-0.629158909
12990000000,-0.629020569
13000000000,-0.628888968
13010000000,-0.62876851
13020000000,-0.628661753
13030000000,-0.628563576
13040000000,-0.62847695
13050000000,-0.62840152
13060000000,-0.628333775
13070000000,-0.62827657
13080000000,-0.628225479
13090000000,-0.628186894
13100000000,-0.628158231
13110000000,-0.6281367
13120000000,-0.628125544
13130000000,-0.628124221
13140000000,-0.628133668
13150000000,-0.628154381
13160000000,-0.62818427
13170000000,-0.628223918
13180000000,-0.628272664
13190000000,-0.628329607
13200000000,-0.628397113
13210000000,-0.628471684
13220000000,-0.62855938
13230000000,-0.628657567
13240000000,-0.628767934
13250000000,-0.628886462
13260000000,-0.629013423
13270000000,-0.629152622
13280000000,-0.629300631
13290000000,-0.629462375
13300000000,-0.629635178
13310000000,-0.629814725
13320000000,-0.630000606
13330000000,-0.63019008
13340000000,-0.630385987
13350000000,-0.630590532
13360000000,-0.630804177
13370000000,-0.631028087
13380000000,-0.63126144
13390000000,-0.631499701
13400000000,-0.631746791
13410000000,-0.632006542
13420000000,-0.632279123
13430000000,-0.63256027
13440000000,-0.632847194
13450000000,-0.633139309
13460000000,-0.633431612
13470000000,-0.633728138
13480000000,-0.63403172
13490000000,-0.634341164
13500000000,-0.634656857
13510000000,-0.634975098
13520000000,-0.63529602
13530000000,-0.635621715
13540000000,-0.635955657
13550000000,-0.636304335
13560000000,-0.6366618
13570000000,-0.637023395
13580000000,-0.637390299
13590000000,-0.637759652
13600000000,-0.638133578
13610000000,-0.638513292
13620000000,-0.638898066
13630000000,-0.639283888
13640000000,-0.639668085
13650000000,-0.640051719
13660000000,-0.640439189
13670000000,-0.640834308
13680000000,-0.641239528
13690000000,-0.641652561
13700000000,-0.642070096
13710000000,-0.642490238
13720000000,-0.642915663
13730000000,-0.643344859
13740000000,-0.643778614
13750000000,-0.644217473
13760000000,-0.644658249
13770000000,-0.645096987
13780000000,-0.645536406
13790000000,-0.645973813
13800000000,-0.646413103
13810000000,-0.646856008
13820000000,-0.647304281
13830000000,-0.647751504
13840000000,-0.648200435
13850000000,-0.648652311
13860000000,-0.649107573
13870000000,-0.649566732
13880000000,-0.650027217
13890000000,-0.650487157
13900000000,-0.650946545
13910000000,-0.651406657
13920000000,-0.651866705
13930000000,-0.652327678
13940000000,-0.652792238
13950000000,-0.65325808
13960000000,-0.65372352
13970000000,-0.654187244
13980000000,-0.654652651
13990000000,-0.655120935
14000000000,-0.655593574
14010000000,-0.656070324
14020000000,-0.656549693
14030000000,-0.657027904
14040000000,-0.657502512
14050000000,-0.657976144
14060000000,-0.658453344
14070000000,-0.658931346
14080000000,-0.659407616
14090000000,-0.659887917
14100000000,-0.660368619
14110000000,-0.660849639
14120000000,-0.661332811
14130000000,-0.661821493
14140000000,-0.66231296
14150000000,-0.662808327
14160000000,-0.663305049
14170000000,-0.663797482
14180000000,-0.66428789
14190000000,-0.664776979
14200000000,-0.665266245
14210000000,-0.665755127
14220000000,-0.666240191
14230000000,-0.666719754
14240000000,-0.667200929
14250000000,-0.667684028
14260000000,-0.668167235
14270000000,-0.668654463
14280000000,-0.669143265
14290000000,-0.669630073
14300000000,-0.670113564
14310000000,-0.670594352
14320000000,-0.671076812
14330000000,-0.671561939
14340000000,-0.67204724
14350000000,-0.672530086
14360000000,-0.673008018
14370000000,-0.673481098
14380000000,-0.67395668
14390000000,-0.674430652
14400000000,-0.674904519
14410000000,-0.675376593
14420000000,-0.675844535
14430000000,-0.676314211
14440000000,-0.676779904
14450000000,-0.677242289
14460000000,-0.677709643
14470000000,-0.678173892
14480000000,-0.6786358
14490000000,-0.679093697
14500000000,-0.679545774
14510000000,-0.679994083
14520000000,-0.680442051
14530000000,-0.680883738
14540000000,-0.681318257
14550000000,-0.681745486
14560000000,-0.682163925
14570000000,-0.682576268
14580000000,-0.682986092
14590000000,-0.683392511
14600000000,-0.683793281
14610000000,-0.684189832
14620000000,-0.684580135
14630000000,-0.684962981
14640000000,-0.685342212
14650000000,-0.685717339
14660000000,-0.686085815
14670000000,-0.686446497
14680000000,-0.686796295
14690000000,-0.687137311
14700000000,-0.687470208
14710000000,-0.687795261
14720000000,-0.688118161
14730000000,-0.688429395
14740000000,-0.688730742
14750000000,-0.689022221
14760000000,-0.689304419
14770000000,-0.6895784
14780000000,-0.689844894
14790000000,-0.690102179
14800000000,-0.690350922
14810000000,-0.690592049
14820000000,-0.690823001
14830000000,-0.691050022
14840000000,-0.691271475
14850000000,-0.691484952
14860000000,-0.691691315
14870000000,-0.691886576
14880000000,-0.692072849
14890000000,-0.692249844
14900000000,-0.692418939
14910000000,-0.692579623
14920000000,-0.692726302
14930000000,-0.692862467
14940000000,-0.692989259
14950000000,-0.693108301
14960000000,-0.693223543
14970000000,-0.693331434
14980000000,-0.69343398
14990000000,-0.693529073
15000000000,-0.693614929
15010000000,-0.693691947
15020000000,-0.693765499
15030000000,-0.693835869
15040000000,-0.693900758
15050000000,-0.693958996
15060000000,-0.694010294
15070000000,-0.694053116
15080000000,-0.694092425
15090000000,-0.69412516
15100000000,-0.694151334
15110000000,-0.694170687
15120000000,-0.694183856
15130000000,-0.694188547
15140000000,-0.694188406
15150000000,-0.694183746
15160000000,-0.694181044
15170000000,-0.694176027
15180000000,-0.694171231
15190000000,-0.694167901
15200000000,-0.694164828
15210000000,-0.694166904
15220000000,-0.694170551
15230000000,-0.694174206
15240000000,-0.694175066
15250000000,-0.694169147
15260000000,-0.694163011
15270000000,-0.694153367
15280000000,-0.694145055
15290000000,-0.694136811
15300000000,-0.694130067
15310000000,-0.694125026
15320000000,-0.694125085
15330000000,-0.694133613
15340000000,-0.694152104
15350000000,-0.694181369
15360000000,-0.694219868
15370000000,-0.694263658
15380000000,-0.694311151
15390000000,-0.694364115
15400000000,-0.694424349
15410000000,-0.694487099
15420000000,-0.694551952
15430000000,-0.694619566
15440000000,-0.694692461
15450000000,-0.694771293
15460000000,-0.694862266
15470000000,-0.694962901
15480000000,-0.695073192
15490000000,-0.69519162
15500000000,-0.695320557
15510000000,-0.695461954
15520000000,-0.695613006
15530000000,-0.695778638
15540000000,-0.695954197
15550000000,-0.696138627
15560000000,-0.696330406
15570000000,-0.696532059
15580000000,-0.696745201
15590000000,-0.696972217
15600000000,-0.697210492
15610000000,-0.697462012
15620000000,-0.697720258
15630000000,-0.697988071
15640000000,-0.698268043
15650000000,-0.698558132
15660000000,-0.698860074
15670000000,-0.69917239
15680000000,-0.699495085
15690000000,-0.699827136
15700000000,-0.700171376
15710000000,-0.700530876
15720000000,-0.700903475
15730000000,-0.701287716
15740000000,-0.701681714
15750000000,-0.70208227
15760000000,-0.702491982
15770000000,-0.702910327
15780000000,-0.703335539
15790000000,-0.703769744
15800000000,-0.704212385
15810000000,-0.704662436
15820000000,-0.705120505
15830000000,-0.705590689
15840000000,-0.706071585
15850000000,-0.706565373
15860000000,-0.707068927
15870000000,-0.707579399
15880000000,-0.708096638
15890000000,-0.708620326
15900000000,-0.709147445
15910000000,-0.709678307
15920000000,-0.710215375
15930000000,-0.710756108
15940000000,-0.711300913
15950000000,-0.711851312
15960000000,-0.712411595
15970000000,-0.712978965
15980000000,-0.713552568
15990000000,-0.714128574
16000000000,-0.714705927
16010000000,-0.715282947
16020000000,-0.715860271
16030000000,-0.71643807
16040000000,-0.717014667
16050000000,-0.717587208
16060000000,-0.718158377
16070000000,-0.718729285
16080000000,-0.7193001
16090000000,-0.7198706
16100000000,-0.720444762
16110000000,-0.721019623
16120000000,-0.721594729
16130000000,-0.72216466
16140000000,-0.722732602
16150000000,-0.72329344
16160000000,-0.723849371
16170000000,-0.72440137
16180000000,-0.724946342
16190000000,-0.725484704
16200000000,-0.726016728
16210000000,-0.72654117
16220000000,-0.727060559
16230000000,-0.727578332
16240000000,-0.728090157
16250000000,-0.728593795
16260000000,-0.729092049
16270000000,-0.729580846
16280000000,-0.73006206
16290000000,-0.730536559
16300000000,-0.731004248
16310000000,-0.731464202
16320000000,-0.731908431
16330000000,-0.732339207
16340000000,-0.732757317
16350000000,-0.733162934
16360000000,-0.73356086
16370000000,-0.733947514
16380000000,-0.73431808
16390000000,-0.734677878
16400000000,-0.735025081
16410000000,-0.735364062
16420000000,-0.735693475
16430000000,-0.736010456
16440000000,-0.736316438
16450000000,-0.7366108
16460000000,-0.736889459
16470000000,-0.737156679
16480000000,-0.737412884
16490000000,-0.737658842
16500000000,-0.737894617
16510000000,-0.738115761
16520000000,-0.738323829
16530000000,-0.738520021
16540000000,-0.73870785
16550000000,-0.738885948
16560000000,-0.739053803
16570000000,-0.739207889
16580000000,-0.739345146
16590000000,-0.739468736
16600000000,-0.739580626
16610000000,-0.739680643
16620000000,-0.73977106
16630000000,-0.739852197
16640000000,-0.7399183
16650000000,-0.7399739
16660000000,-0.740020357
16670000000,-0.740057957
16680000000,-0.740089725
16690000000,-0.740110018
16700000000,-0.740114225
16710000000,-0.740103571
16720000000,-0.740073626
16730000000,-0.740031509
16740000000,-0.739974821
16750000000,-0.739902672
16760000000,-0.73981726
16770000000,-0.739720134
16780000000,-0.739609004
16790000000,-0.73948906
16800000000,-0.739361459
16810000000,-0.739226998
16820000000,-0.739083671
16830000000,-0.738928206
16840000000,-0.738758644
16850000000,-0.738578378
16860000000,-0.738386813
16870000000,-0.738186592
16880000000,-0.737973331
16890000000,-0.737746738
16900000000,-0.737505023
16910000000,-0.737249689
16920000000,-0.736985108
16930000000,-0.73671141
16940000000,-0.736427925
16950000000,-0.736139132
16960000000,-0.735843071
16970000000,-0.735539481
16980000000,-0.735231593
16990000000,-0.734917478
17000000000,-0.734600172
17010000000,-0.734277928
17020000000,-0.733943418
17030000000,-0.733598314
17040000000,-0.733242244
17050000000,-0.732875088
17060000000,-0.732502064
17070000000,-0.732122023
17080000000,-0.73173319
17090000000,-0.731335516
17100000000,-0.73093228
17110000000,-0.730526048
17120000000,-0.730119667
17130000000,-0.729717342
17140000000,-0.729316256
17150000000,-0.728913973
17160000000,-0.728505703
17170000000,-0.728093005
17180000000,-0.727675921
17190000000,-0.727253006
17200000000,-0.726824965
17210000000,-0.726392086
17220000000,-0.725950762
17230000000,-0.725504378
17240000000,-0.725054621
17250000000,-0.72460771
17260000000,-0.724165066
17270000000,-0.723726593
17280000000,-0.723292898
17290000000,-0.722859599
17300000000,-0.722426395
17310000000,-0.721997569
17320000000,-0.721570762
17330000000,-0.721145828
17340000000,-0.720721523
17350000000,-0.720294198
17360000000,-0.719865566
17370000000,-0.719439083
17380000000,-0.719014341
17390000000,-0.718596505
17400000000,-0.718184667
17410000000,-0.717779081
17420000000,-0.717377217
17430000000,-0.716983967
17440000000,-0.716596973
17450000000,-0.716219844
17460000000,-0.71585274
17470000000,-0.715491133
17480000000,-0.715136296
17490000000,-0.714786118
17500000000,-0.714441404
17510000000,-0.714104493
17520000000,-0.713776062
17530000000,-0.713455361
17540000000,-0.713142738
17550000000,-0.712836399
17560000000,-0.712540036
17570000000,-0.712256759
17580000000,-0.711985352
17590000000,-0.711724966
17600000000,-0.711474476
17610000000,-0.71123518
17620000000,-0.711007263
17630000000,-0.710793303
17640000000,-0.71058933
17650000000,-0.710398059
17660000000,-0.710214334
17670000000,-0.710038611
17680000000,-0.709873257
17690000000,-0.709718425
17700000000,-0.709576866
17710000000,-0.709447185
17720000000,-0.709327932
17730000000,-0.70922336
17740000000,-0.709132619
17750000000,-0.709058681
17760000000,-0.708996767
17770000000,-0.708949376
17780000000,-0.708913833
17790000000,-0.708886977
17800000000,-0.708866656
17810000000,-0.708855271
17820000000,-0.708850788
17830000000,-0.708851495
17840000000,-0.708858413
17850000000,-0.708867373
17860000000,-0.708883229
17870000000,-0.708909221
17880000000,-0.70894657
17890000000,-0.708993698
17900000000,-0.709049592
17910000000,-0.709112747
17920000000,-0.709180117
17930000000,-0.709254709
17940000000,-0.70933664
17950000000,-0.709421778
17960000000,-0.709509637
17970000000,-0.709597551
17980000000,-0.709684895
17990000000,-0.709774299
18000000000,-0.7098699
18010000000,-0.709970426
18020000000,-0.710072234
18030000000,-0.710177781
18040000000,-0.710286187
18050000000,-0.710396621
18060000000,-0.71050487
18070000000,-0.710613239
18080000000,-0.710720774
18090000000,-0.71082123
18100000000,-0.71091439
18110000000,-0.710997893
18120000000,-0.711072865
18130000000,-0.711143589
18140000000,-0.711207785
18150000000,-0.711267301
18160000000,-0.711320616
18170000000,-0.711365485
18180000000,-0.711400843
18190000000,-0.711428817
18200000000,-0.711450358
18210000000,-0.711468379
18220000000,-0.711481673
18230000000,-0.711487415
18240000000,-0.711480937
18250000000,-0.711467248
18260000000,-0.711446071
18270000000,-0.711422655
18280000000,-0.711390898
18290000000,-0.711350145
18300000000,-0.711296894
18310000000,-0.711230236
18320000000,-0.71115351
18330000000,-0.711067331
18340000000,-0.710973379
18350000000,-0.710871916
18360000000,-0.710764299
18370000000,-0.710651017
18380000000,-0.710534193
18390000000,-0.710415793
18400000000,-0.710293557
18410000000,-0.710166728
18420000000,-0.710035582
18430000000,-0.709894723
18440000000,-0.709745299
18450000000,-0.70958676
18460000000,-0.709419397
18470000000,-0.709242635
18480000000,-0.709060217
18490000000,-0.708872248
18500000000,-0.708678108
18510000000,-0.70848256
18520000000,-0.708284686
18530000000,-0.708090379
18540000000,-0.707896864
18550000000,-0.707702238
18560000000,-0.707505668
18570000000,-0.707311138
18580000000,-0.707117474
18590000000,-0.706925696
18600000000,-0.706732062
18610000000,-0.706535449
18620000000,-0.706339462
18630000000,-0.706142932
18640000000,-0.705948509
18650000000,-0.705756439
18660000000,-0.705564891
18670000000,-0.705378919
18680000000,-0.705196029
18690000000,-0.705021341
18700000000,-0.70485708
18710000000,-0.704703702
18720000000,-0.704560064
18730000000,-0.704424923
18740000000,-0.704300303
18750000000,-0.704184457
18760000000,-0.704074186
18770000000,-0.703970453
18780000000,-0.703874396
18790000000,-0.703784399
18800000000,-0.703697631
18810000000,-0.703613772
18820000000,-0.703544762
18830000000,-0.703488787
18840000000,-0.70345044
18850000000,-0.703427251
18860000000,-0.703417822
18870000000,-0.703422296
18880000000,-0.703439783
18890000000,-0.703473386
18900000000,-0.703519821
18910000000,-0.703578505
18920000000,-0.703644129
18930000000,-0.703715859
18940000000,-0.703795863
18950000000,-0.703880749
18960000000,-0.703975498
18970000000,-0.704082278
18980000000,-0.704204016
18990000000,-0.704343985
19000000000,-0.704499822
19010000000,-0.704672042
19020000000,-0.704861536
19030000000,-0.70506647
19040000000,-0.705287367
19050000000,-0.705520717
19060000000,-0.705761425
19070000000,-0.706005575
19080000000,-0.706257574
19090000000,-0.706516226
19100000000,-0.706782751
19110000000,-0.707058435
19120000000,-0.707341274
19130000000,-0.70763208
19140000000,-0.707931605
19150000000,-0.708244643
19160000000,-0.708571294
19170000000,-0.708913147
19180000000,-0.709267129
19190000000,-0.709630797
19200000000,-0.7100028
19210000000,-0.71037732
19220000000,-0.710756799
19230000000,-0.711139133
19240000000,-0.711526533
19250000000,-0.711918668
19260000000,-0.71230838
19270000000,-0.712699968
19280000000,-0.713093315
19290000000,-0.7134898
19300000000,-0.713893255
19310000000,-0.71430396
19320000000,-0.714718952
19330000000,-0.715138433
19340000000,-0.715557526
19350000000,-0.715977899
19360000000,-0.71640332
19370000000,-0.716828227
19380000000,-0.717253724
19390000000,-0.7176744
19400000000,-0.71808712
19410000000,-0.718491446
19420000000,-0.718894293
19430000000,-0.719292752
19440000000,-0.71968736
19450000000,-0.720079384
19460000000,-0.720459735
19470000000,-0.720834032
19480000000,-0.721201946
19490000000,-0.721568067
19500000000,-0.721932373
19510000000,-0.722292033
19520000000,-0.722643685
19530000000,-0.72298488
19540000000,-0.723313495
19550000000,-0.723633474
19560000000,-0.723946049
19570000000,-0.724247724
19580000000,-0.724538013
19590000000,-0.724816077
19600000000,-0.72508188
19610000000,-0.725333828
19620000000,-0.725579319
19630000000,-0.725813998
19640000000,-0.726042647
19650000000,-0.726255333
19660000000,-0.726456387
19670000000,-0.726646464
19680000000,-0.72682436
19690000000,-0.726993338
19700000000,-0.727152878
19710000000,-0.72729654
19720000000,-0.727427897
19730000000,-0.727544223
19740000000,-0.727645226
19750000000,-0.727731523
19760000000,-0.727807877
19770000000,-0.727867587
19780000000,-0.727910564
19790000000,-0.72793839
19800000000,-0.727953329
19810000000,-0.727954301
19820000000,-0.727943912
19830000000,-0.727925873
19840000000,-0.727901244
19850000000,-0.727870457
19860000000,-0.727835414
19870000000,-0.727794259
19880000000,-0.727747909
19890000000,-0.727695211
19900000000,-0.727635457
19910000000,-0.727564741
19920000000,-0.727482329
19930000000,-0.727384472
19940000000,-0.727270423
19950000000,-0.727147804
19960000000,-0.727013301
19970000000,-0.726869584
19980000000,-0.726719251
19990000000,-0.726563353
20000000000,-0.72640261
20010000000,-0.726244032
20020000000,-0.72608803
20030000000,-0.725934751
20040000000,-0.725780769
20050000000,-0.725625398
20060000000,-0.725466641
20070000000,-0.725300579
20080000000,-0.72512931
20090000000,-0.724955853
20100000000,-0.724775841
20110000000,-0.724593573
20120000000,-0.724412508
20130000000,-0.724230855
20140000000,-0.724051892
20150000000,-0.723877351
20160000000,-0.723705503
20170000000,-0.723541327
20180000000,-0.723383553
20190000000,-0.723229928
20200000000,-0.72308106
20210000000,-0.72293578
20220000000,-0.722792411
20230000000,-0.722649362
20240000000,-0.722512591
20250000000,-0.722378831
20260000000,-0.722249537
20270000000,-0.722120532
20280000000,-0.721998451
20290000000,-0.721884696
20300000000,-0.721780238
20310000000,-0.721687221
20320000000,-0.721604209
20330000000,-0.721525831
20340000000,-0.721455275
20350000000,-0.721395331
20360000000,-0.721341717
20370000000,-0.721297041
20380000000,-0.721260221
20390000000,-0.721227096
20400000000,-0.721203756
20410000000,-0.72119117
20420000000,-0.721188801
20430000000,-0.721203356
20440000000,-0.72123501
20450000000,-0.721283348
20460000000,-0.721349151
20470000000,-0.721428979
20480000000,-0.721521622
20490000000,-0.721623237
20500000000,-0.721738264
20510000000,-0.721863017
20520000000,-0.721998708
20530000000,-0.72214141
20540000000,-0.722293362
20550000000,-0.722459491
20560000000,-0.72264295
20570000000,-0.722839045
20580000000,-0.723050706
20590000000,-0.723277216
20600000000,-0.723523203
20610000000,-0.723789986
20620000000,-0.724072278
20630000000,-0.724366511
20640000000,-0.724675484
20650000000,-0.724994017
20660000000,-0.725321908
20670000000,-0.725659021
20680000000,-0.726008122
20690000000,-0.726366855
20700000000,-0.7267379
20710000000,-0.727119585
20720000000,-0.727515869
20730000000,-0.727926932
20740000000,-0.728354217
20750000000,-0.72879923
20760000000,-0.729261715
20770000000,-0.729740204
20780000000,-0.730233311
20790000000,-0.730742398
20800000000,-0.731270311
20810000000,-0.731814368
20820000000,-0.732364349
20830000000,-0.732922809
20840000000,-0.733488291
20850000000,-0.734063129
20860000000,-0.734646461
20870000000,-0.735243184
20880000000,-0.735853633
20890000000,-0.736473287
20900000000,-0.737105207
20910000000,-0.737752211
20920000000,-0.738416071
20930000000,-0.739094873
20940000000,-0.739787442
20950000000,-0.740494409
20960000000,-0.74121091
20970000000,-0.741937112
20980000000,-0.742666769
20990000000,-0.743399099
21000000000,-0.744138248
21010000000,-0.744881343
21020000000,-0.745629477
21030000000,-0.746383727
21040000000,-0.747144079
21050000000,-0.747912413
21060000000,-0.748689539
21070000000,-0.749482667
21080000000,-0.750283889
21090000000,-0.75109463
21100000000,-0.75190996
21110000000,-0.752728258
21120000000,-0.753548953
21130000000,-0.754370622
21140000000,-0.75519104
21150000000,-0.75601046
21160000000,-0.756826336
21170000000,-0.757636506
21180000000,-0.758439371
21190000000,-0.759237784
21200000000,-0.760032939
21210000000,-0.760830942
21220000000,-0.761626722
21230000000,-0.762423385
21240000000,-0.763216897
21250000000,-0.764005934
21260000000,-0.764795601
21270000000,-0.765581541
21280000000,-0.766366242
21290000000,-0.76714672
21300000000,-0.767917581
21310000000,-0.768676429
21320000000,-0.769424583
21330000000,-0.770156095
21340000000,-0.770877107
21350000000,-0.771585156
21360000000,-0.772274334
21370000000,-0.772947685
21380000000,-0.773607127
21390000000,-0.774257503
21400000000,-0.774896059
21410000000,-0.775528985
21420000000,-0.776149327
21430000000,-0.776759279
21440000000,-0.777355366
21450000000,-0.777929961
21460000000,-0.778489434
21470000000,-0.77903183
21480000000,-0.779552629
21490000000,-0.780054503
21500000000,-0.780528619
21510000000,-0.780978568
21520000000,-0.781405669
21530000000,-0.781815399
21540000000,-0.78220994
21550000000,-0.782590177
21560000000,-0.782953342
21570000000,-0.783297799
21580000000,-0.783625649
21590000000,-0.78393639
21600000000,-0.784229627
21610000000,-0.784504579
21620000000,-0.784758066
21630000000,-0.784991969
21640000000,-0.785200628
21650000000,-0.785392256
21660000000,-0.785565375
21670000000,-0.785718231
21680000000,-0.785851728
21690000000,-0.785965823
21700000000,-0.786060508
21710000000,-0.786139755
21720000000,-0.786204208
21730000000,-0.786251976
21740000000,-0.786286415
21750000000,-0.786306898
21760000000,-0.786305945
21770000000,-0.786295203
21780000000,-0.786275257
21790000000,-0.786240982
21800000000,-0.7861938
21810000000,-0.786134809
21820000000,-0.786063069
21830000000,-0.785976562
21840000000,-0.785877039
21850000000,-0.785766515
21860000000,-0.785641157
21870000000,-0.785507112
21880000000,-0.785365315
21890000000,-0.785217595
21900000000,-0.785066704
21910000000,-0.784915915
21920000000,-0.78476585
21930000000,-0.784616349
21940000000,-0.784472075
21950000000,-0.784325021
21960000000,-0.784178896
21970000000,-0.784036591
21980000000,-0.783896781
21990000000,-0.783761598
22000000000,-0.783628294
22010000000,-0.783495917
22020000000,-0.783369842
22030000000,-0.783250825
22040000000,-0.78314218
22050000000,-0.783047955
22060000000,-0.782969083
22070000000,-0.782902622
22080000000,-0.782850707
22090000000,-0.782813217
22100000000,-0.782792844
22110000000,-0.782789049
22120000000,-0.782802489
22130000000,-0.782833326
22140000000,-0.782882673
22150000000,-0.782953544
22160000000,-0.783042911
22170000000,-0.783153863
22180000000,-0.783291037
22190000000,-0.783451336
22200000000,-0.783632595
22210000000,-0.78383598
22220000000,-0.784064471
22230000000,-0.784317588
22240000000,-0.784592073
22250000000,-0.78488955
22260000000,-0.785210287
22270000000,-0.785557798
22280000000,-0.785930977
22290000000,-0.786333277
22300000000,-0.786765731
22310000000,-0.787225595
22320000000,-0.787715811
22330000000,-0.788237699
22340000000,-0.788794457
22350000000,-0.789375772
22360000000,-0.789986285
22370000000,-0.790625033
22380000000,-0.791290557
22390000000,-0.791987753
22400000000,-0.79271386
22410000000,-0.793467858
22420000000,-0.79424596
22430000000,-0.795042905
22440000000,-0.795861167
22450000000,-0.796701349
22460000000,-0.797562129
22470000000,-0.798442437
22480000000,-0.799344289
22490000000,-0.800269941
22500000000,-0.801217732
22510000000,-0.802193061
22520000000,-0.803199309
22530000000,-0.804235527
22540000000,-0.805301855
22550000000,-0.806389391
22560000000,-0.8074936
22570000000,-0.808615025
22580000000,-0.809748837
22590000000,-0.810889437
22600000000,-0.812033934
22610000000,-0.813178011
22620000000,-0.814319538
22630000000,-0.815468271
22640000000,-0.8166222
22650000000,-0.817789503
22660000000,-0.818971729
22670000000,-0.820169574
22680000000,-0.82138277
22690000000,-0.822608837
22700000000,-0.823845174
22710000000,-0.825087198
22720000000,-0.826330871
22730000000,-0.827572768
22740000000,-0.828799416
22750000000,-0.830009773
22760000000,-0.831201533
22770000000,-0.832375447
22780000000,-0.833531282
22790000000,-0.83467135
22800000000,-0.835795042
22810000000,-0.836905704
22820000000,-0.83800515
22830000000,-0.839094718
22840000000,-0.840176399
22850000000,-0.841246908
22860000000,-0.842307372
22870000000,-0.843351683
22880000000,-0.844373322
22890000000,-0.845370811
22900000000,-0.846344064
22910000000,-0.84728851
22920000000,-0.848203229
22930000000,-0.849088602
22940000000,-0.849946306
22950000000,-0.850767955
22960000000,-0.851559315
22970000000,-0.852321452
22980000000,-0.853056428
22990000000,-0.853769459
23000000000,-0.854457175
23010000000,-0.85512
23020000000,-0.855758341
23030000000,-0.856372562
23040000000,-0.856954106
23050000000,-0.857503619
23060000000,-0.858022805
23070000000,-0.858512481
23080000000,-0.858968848
23090000000,-0.85938356
23100000000,-0.859759247
23110000000,-0.860102838
23120000000,-0.860413029
23130000000,-0.860697316
23140000000,-0.860948621
23150000000,-0.861162111
23160000000,-0.861353316
23170000000,-0.861517535
23180000000,-0.861658343
23190000000,-0.861777647
23200000000,-0.861873034
23210000000,-0.861940739
23220000000,-0.86198318
23230000000,-0.86198851
23240000000,-0.861956461
23250000000,-0.861888731
23260000000,-0.861787922
23270000000,-0.861670584
23280000000,-0.861524554
23290000000,-0.861351754
23300000000,-0.861157972
23310000000,-0.860944289
23320000000,-0.860716121
23330000000,-0.860480812
23340000000,-0.860231421
23350000000,-0.859964535
23360000000,-0.859683718
23370000000,-0.859388275
23380000000,-0.859070078
23390000000,-0.858735536
23400000000,-0.858388694
23410000000,-0.858014565
23420000000,-0.857622147
23430000000,-0.857208729
23440000000,-0.856782079
23450000000,-0.856353695
23460000000,-0.855919903
23470000000,-0.855481606
23480000000,-0.855041773
23490000000,-0.854591105
23500000000,-0.854140916
23510000000,-0.85368725
23520000000,-0.853234684
23530000000,-0.85278038
23540000000,-0.852321141
23550000000,-0.851854223
23560000000,-0.851384243
23570000000,-0.850911614
23580000000,-0.850435457
23590000000,-0.84996249
23600000000,-0.849497729
23610000000,-0.849028605
23620000000,-0.84856729
23630000000,-0.848109282
23640000000,-0.847656514
23650000000,-0.847210987
23660000000,-0.846764658
23670000000,-0.846328528
23680000000,-0.845899587
23690000000,-0.845466349
23700000000,-0.845044198
23710000000,-0.844634279
23720000000,-0.844230114
23730000000,-0.843833378
23740000000,-0.84343694
23750000000,-0.843052623
23760000000,-0.842674579
23770000000,-0.842304396
23780000000,-0.84194957
23790000000,-0.841601776
23800000000,-0.8412645
23810000000,-0.840927158
23820000000,-0.840600332
23830000000,-0.840288328
23840000000,-0.839981708
23850000000,-0.839683011
23860000000,-0.839395834
23870000000,-0.839115462
23880000000,-0.838842667
23890000000,-0.838577295
23900000000,-0.838321655
23910000000,-0.83808242
23920000000,-0.837856972
23930000000,-0.837639397
23940000000,-0.837428362
23950000000,-0.837222144
23960000000,-0.837019079
23970000000,-0.836821864
23980000000,-0.836631869
23990000000,-0.83644437
24000000000,-0.836265942
24010000000,-0.836085805
24020000000,-0.835914179
24030000000,-0.835753229
24040000000,-0.83559768
24050000000,-0.835445773
24060000000,-0.835298944
24070000000,-0.835161846
24080000000,-0.835031796
24090000000,-0.834899809
24100000000,-0.834774172
24110000000,-0.834659728
24120000000,-0.834551492
24130000000,-0.834446268
24140000000,-0.834337156
24150000000,-0.834227018
24160000000,-0.834127826
24170000000,-0.834027718
24180000000,-0.833921779
24190000000,-0.833819895
24200000000,-0.833716625
24210000000,-0.833612095
24220000000,-0.833515148
24230000000,-0.833418493
24240000000,-0.833334079
24250000000,-0.833255936
24260000000,-0.833188035
24270000000,-0.833122339
24280000000,-0.833059921
24290000000,-0.832992102
24300000000,-0.832930819
24310000000,-0.832865616
24320000000,-0.83279913
24330000000,-0.832733647
24340000000,-0.832659584
24350000000,-0.83258084
24360000000,-0.832505074
24370000000,-0.832432828
24380000000,-0.832368506
24390000000,-0.832306866
24400000000,-0.832251697
24410000000,-0.832196827
24420000000,-0.832151871
24430000000,-0.832118189
24440000000,-0.832092845
24450000000,-0.832072468
24460000000,-0.832053028
24470000000,-0.832038882
24480000000,-0.832023071
24490000000,-0.832003931
24500000000,-0.831981696
24510000000,-0.831956308
24520000000,-0.83192266
24530000000,-0.831888931
24540000000,-0.83184665
24550000000,-0.831806442
24560000000,-0.831775865
24570000000,-0.831753204
24580000000,-0.831739838
24590000000,-0.831741012
24600000000,-0.831754633
24610000000,-0.831778809
24620000000,-0.831815875
24630000000,-0.831848087
24640000000,-0.831881754
24650000000,-0.831911039
24660000000,-0.831931995
24670000000,-0.831938794
24680000000,-0.831932852
24690000000,-0.831916013
24700000000,-0.831899033
24710000000,-0.831879923
24720000000,-0.831871361
24730000000,-0.83186251
24740000000,-0.83186447
24750000000,-0.831873655
24760000000,-0.831892231
24770000000,-0.83191089
24780000000,-0.83193778
24790000000,-0.831954931
24800000000,-0.831964965
24810000000,-0.831965266
24820000000,-0.831954827
24830000000,-0.831931905
24840000000,-0.83190286
24850000000,-0.831869411
24860000000,-0.831829199
24870000000,-0.831787598
24880000000,-0.831743041
24890000000,-0.83170138
24900000000,-0.831659124
24910000000,-0.831613569
24920000000,-0.831560152
24930000000,-0.83149812
24940000000,-0.831422637
24950000000,-0.831343852
24960000000,-0.83125822
24970000000,-0.831160454
24980000000,-0.831053425
24990000000,-0.830933934
25000000000,-0.830802263
25010000000,-0.830664373
25020000000,-0.830518589
25030000000,-0.830362905
25040000000,-0.830205061
25050000000,-0.830041156
25060000000,-0.829861994
25070000000,-0.829661904
25080000000,-0.829450564
25090000000,-0.829229918
25100000000,-0.82899996
25110000000,-0.82875374
25120000000,-0.828495519
25130000000,-0.828220524
25140000000,-0.827935488
25150000000,-0.827653763
25160000000,-0.827357677
25170000000,-0.827058929
25180000000,-0.826751373
25190000000,-0.826428471
25200000000,-0.826093677
25210000000,-0.825743667
25220000000,-0.825374086
25230000000,-0.825002808
25240000000,-0.824623087
25250000000,-0.824231867
25260000000,-0.823832042
25270000000,-0.823409908
25280000000,-0.822984384
25290000000,-0.822556086
25300000000,-0.822126811
25310000000,-0.821686176
25320000000,-0.821233041
25330000000,-0.820765309
25340000000,-0.820290347
25350000000,-0.819805111
25360000000,-0.819310197
25370000000,-0.818807391
25380000000,-0.818285792
25390000000,-0.817752164
25400000000,-0.817211333
25410000000,-0.816673266
25420000000,-0.81613599
25430000000,-0.815596069
25440000000,-0.815059734
25450000000,-0.814519008
25460000000,-0.813979322
25470000000,-0.813439549
25480000000,-0.81290281
25490000000,-0.812368095
25500000000,-0.811830138
25510000000,-0.811286561
25520000000,-0.81074144
25530000000,-0.810190752
25540000000,-0.809644334
25550000000,-0.809096449
25560000000,-0.808549592
25570000000,-0.808003116
25580000000,-0.807462729
25590000000,-0.806932328
25600000000,-0.806410264
25610000000,-0.805909183
25620000000,-0.805415736
25630000000,-0.804931898
25640000000,-0.804468902
25650000000,-0.804013103
25660000000,-0.803574882
25670000000,-0.803144804
25680000000,-0.802720791
25690000000,-0.802306189
25700000000,-0.801894153
25710000000,-0.801485517
25720000000,-0.801086577
25730000000,-0.800701414
25740000000,-0.800336906
25750000000,-0.799983192
25760000000,-0.799651325
25770000000,-0.799336572
25780000000,-0.799038297
25790000000,-0.798756577
25800000000,-0.798490502
25810000000,-0.798243474
25820000000,-0.798005752
25830000000,-0.797763928
25840000000,-0.797538521
25850000000,-0.797323548
25860000000,-0.797115509
25870000000,-0.796921626
25880000000,-0.796739487
25890000000,-0.796572672
25900000000,-0.79642441
25910000000,-0.796289816
25920000000,-0.796168261
25930000000,-0.796072297
25940000000,-0.795987027
25950000000,-0.795913511
25960000000,-0.795851798
25970000000,-0.795794831
25980000000,-0.795742266
25990000000,-0.795700296
26000000000,-0.795659192
26010000000,-0.795632641
26020000000,-0.795607441
26030000000,-0.795584535
26040000000,-0.79557885
26050000000,-0.795583605
26060000000,-0.795604428
26070000000,-0.795631303
26080000000,-0.795656952
26090000000,-0.795697108
26100000000,-0.795741463
26110000000,-0.795778862
26120000000,-0.795821328
26130000000,-0.795865484
26140000000,-0.795916371
26150000000,-0.795965285
26160000000,-0.79600975
26170000000,-0.796057938
26180000000,-0.796113087
26190000000,-0.796164331
26200000000,-0.796223458
26210000000,-0.796276383
26220000000,-0.796320154
26230000000,-0.79635593
26240000000,-0.796380452
26250000000,-0.79640378
26260000000,-0.796408799
26270000000,-0.796405742
26280000000,-0.796393071
26290000000,-0.796373651
26300000000,-0.796338889
26310000000,-0.796303971
26320000000,-0.796257814
26330000000,-0.796202482
26340000000,-0.7961399
26350000000,-0.796064983
26360000000,-0.79597776
26370000000,-0.795874316
26380000000,-0.795756148
26390000000,-0.795621176
26400000000,-0.795466573
26410000000,-0.795293851
26420000000,-0.795100172
26430000000,-0.794894262
26440000000,-0.79467603
26450000000,-0.7944479
26460000000,-0.794209736
26470000000,-0.79396411
26480000000,-0.793706985
26490000000,-0.793442748
26500000000,-0.79316989
26510000000,-0.792884443
26520000000,-0.792588164
26530000000,-0.792270084
26540000000,-0.791936314
26550000000,-0.791585007
26560000000,-0.791209683
26570000000,-0.790822884
26580000000,-0.790425467
26590000000,-0.790010938
26600000000,-0.789582106
26610000000,-0.789143131
26620000000,-0.788691289
26630000000,-0.788241899
26640000000,-0.78778814
26650000000,-0.787326256
26660000000,-0.786858466
26670000000,-0.786385513
26680000000,-0.785903657
26690000000,-0.785410278
26700000000,-0.784906227
26710000000,-0.784399608
26720000000,-0.783873419
26730000000,-0.783344489
26740000000,-0.78281061
26750000000,-0.78227484
26760000000,-0.781737128
26770000000,-0.781212097
26780000000,-0.780688389
26790000000,-0.780169724
26800000000,-0.779652401
26810000000,-0.779138858
26820000000,-0.778628569
26830000000,-0.77811892
26840000000,-0.777610281
26850000000,-0.777099014
26860000000,-0.776583698
26870000000,-0.776065909
26880000000,-0.775551067
26890000000,-0.775040705
26900000000,-0.774543164
26910000000,-0.774047822
26920000000,-0.77357144
26930000000,-0.773110516
26940000000,-0.77265805
26950000000,-0.772220717
26960000000,-0.771796177
26970000000,-0.771391583
26980000000,-0.77100044
26990000000,-0.770620929
27000000000,-0.770254579
27010000000,-0.769895315
27020000000,-0.769546943
27030000000,-0.769213679
27040000000,-0.768893429
27050000000,-0.768583621
27060000000,-0.768299116
27070000000,-0.768033701
27080000000,-0.767784339
27090000000,-0.767556341
27100000000,-0.767349056
27110000000,-0.767159566
27120000000,-0.76698938
27130000000,-0.766833155
27140000000,-0.766686983
27150000000,-0.766550755
27160000000,-0.766428828
27170000000,-0.766318151
27180000000,-0.766221289
27190000000,-0.766144994
27200000000,-0.766084895
27210000000,-0.766047608
27220000000,-0.766034473
27230000000,-0.766041468
27240000000,-0.766076253
27250000000,-0.766137092
27260000000,-0.76621361
27270000000,-0.766309301
27280000000,-0.766418271
27290000000,-0.766538663
27300000000,-0.766668871
27310000000,-0.766819438
27320000000,-0.766989878
27330000000,-0.767173823
27340000000,-0.76736878
27350000000,-0.767586643
27360000000,-0.767820685
27370000000,-0.768075942
27380000000,-0.768364852
27390000000,-0.768668724
27400000000,-0.768991341
27410000000,-0.769324121
27420000000,-0.769661669
27430000000,-0.770016882
27440000000,-0.770378319
27450000000,-0.770754535
27460000000,-0.771138102
27470000000,-0.771536083
27480000000,-0.771939014
27490000000,-0.772351917
27500000000,-0.772784927
27510000000,-0.773236804
27520000000,-0.773698655
27530000000,-0.774177964
27540000000,-0.77465967
27550000000,-0.775156341
27560000000,-0.775663162
27570000000,-0.776190203
27580000000,-0.776730292
27590000000,-0.777268014
27600000000,-0.777811395
27610000000,-0.778357554
27620000000,-0.778911854
27630000000,-0.779471357
27640000000,-0.780029965
27650000000,-0.780594361
27660000000,-0.781162346
27670000000,-0.781729025
27680000000,-0.782303237
27690000000,-0.782892498
27700000000,-0.78349308
27710000000,-0.784108316
27720000000,-0.784738759
27730000000,-0.785380498
27740000000,-0.78602601
27750000000,-0.7866715
27760000000,-0.787317493
27770000000,-0.787958031
27780000000,-0.788595319
27790000000,-0.78922753
27800000000,-0.789849089
27810000000,-0.790465673
27820000000,-0.791079074
27830000000,-0.79171016
27840000000,-0.792336529
27850000000,-0.792970148
27860000000,-0.793612943
27870000000,-0.794253411
27880000000,-0.794895076
27890000000,-0.795533873
27900000000,-0.796164513
27910000000,-0.796782846
27920000000,-0.797387547
27930000000,-0.797975097
27940000000,-0.798559908
27950000000,-0.799139399
27960000000,-0.799717108
27970000000,-0.800293704
27980000000,-0.800871644
27990000000,-0.80143682
28000000000,-0.801996804
28010000000,-0.80254703
28020000000,-0.803087953
28030000000,-0.803610252
28040000000,-0.804114536
28050000000,-0.804601775
28060000000,-0.80506966
28070000000,-0.805523297
28080000000,-0.805971834
28090000000,-0.806406803
28100000000,-0.806824823
28110000000,-0.80723408
28120000000,-0.807624793
28130000000,-0.80799798
28140000000,-0.808351428
28150000000,-0.808691115
28160000000,-0.809012858
28170000000,-0.809316886
28180000000,-0.809604037
28190000000,-0.809871871
28200000000,-0.810119196
28210000000,-0.81035955
28220000000,-0.810580158
28230000000,-0.810786845
28240000000,-0.810968829
28250000000,-0.811128842
28260000000,-0.811268962
28270000000,-0.811390515
28280000000,-0.811491252
28290000000,-0.811577473
28300000000,-0.811648171
28310000000,-0.81170264
28320000000,-0.811742885
28330000000,-0.81176514
28340000000,-0.811774073
28350000000,-0.811769515
28360000000,-0.811742676
28370000000,-0.811693144
28380000000,-0.81161305
28390000000,-0.811511812
28400000000,-0.811383547
28410000000,-0.81124243
28420000000,-0.811078999
28430000000,-0.810893917
28440000000,-0.810692746
28450000000,-0.81047517
28460000000,-0.810247112
28470000000,-0.810000345
28480000000,-0.809736552
28490000000,-0.80945206
28500000000,-0.809148167
28510000000,-0.808830157
28520000000,-0.808489097
28530000000,-0.808130736
28540000000,-0.807757042
28550000000,-0.807370198
28560000000,-0.806972216
28570000000,-0.806559519
28580000000,-0.806140681
28590000000,-0.805716539
28600000000,-0.805289021
28610000000,-0.804856107
28620000000,-0.804423734
28630000000,-0.803986153
28640000000,-0.803535715
28650000000,-0.803082009
28660000000,-0.802624602
28670000000,-0.802156547
28680000000,-0.801684274
28690000000,-0.80120905
28700000000,-0.800733423
28710000000,-0.800255824
28720000000,-0.799787778
28730000000,-0.799330214
28740000000,-0.798882569
28750000000,-0.798440199
28760000000,-0.798004361
28770000000,-0.797565142
28780000000,-0.797131529
28790000000,-0.796707369
28800000000,-0.796286504
28810000000,-0.795862646
28820000000,-0.79545346
28830000000,-0.795053732
28840000000,-0.794661005
28850000000,-0.794291568
28860000000,-0.793943586
28870000000,-0.793622829
28880000000,-0.793331277
28890000000,-0.793062818
28900000000,-0.792808453
28910000000,-0.792580973
28920000000,-0.792358023
28930000000,-0.792154066
28940000000,-0.791963438
28950000000,-0.791779031
28960000000,-0.791605197
28970000000,-0.7914433
28980000000,-0.791295756
28990000000,-0.791169111
29000000000,-0.791075554
29010000000,-0.79100878
29020000000,-0.79097476
29030000000,-0.790978858
29040000000,-0.791013923
29050000000,-0.791084415
29060000000,-0.791179832
29070000000,-0.791306321
29080000000,-0.791451504
29090000000,-0.791618915
29100000000,-0.791805427
29110000000,-0.792006565
29120000000,-0.792223116
29130000000,-0.792456052
29140000000,-0.792715642
29150000000,-0.792989681
29160000000,-0.793278247
29170000000,-0.793588479
29180000000,-0.793933098
29190000000,-0.794302184
29200000000,-0.794699698
29210000000,-0.795123727
29220000000,-0.795576804
29230000000,-0.796039627
29240000000,-0.796512788
29250000000,-0.796991628
29260000000,-0.797472163
29270000000,-0.797954477
29280000000,-0.798428424
29290000000,-0.798909807
29300000000,-0.799395606
29310000000,-0.799882442
29320000000,-0.800380371
29330000000,-0.800894397
29340000000,-0.801434358
29350000000,-0.801990788
29360000000,-0.802568612
29370000000,-0.803156953
29380000000,-0.803751627
29390000000,-0.804341874
29400000000,-0.804922125
29410000000,-0.805484522
29420000000,-0.806030653
29430000000,-0.806559388
29440000000,-0.807069808
29450000000,-0.807558634
29460000000,-0.808038278
29470000000,-0.808496091
29480000000,-0.808948257
29490000000,-0.80939684
29500000000,-0.809825462
29510000000,-0.810248666
29520000000,-0.810659291
29530000000,-0.811043284
29540000000,-0.811411938
29550000000,-0.811750844
29560000000,-0.812062588
29570000000,-0.812346042
29580000000,-0.812597238
29590000000,-0.812833079
29600000000,-0.81303624
29610000000,-0.81321424
29620000000,-0.813369803
29630000000,-0.813498826
29640000000,-0.813599302
29650000000,-0.813678425
29660000000,-0.813729694
29670000000,-0.813754787
29680000000,-0.813744756
29690000000,-0.813702699
29700000000,-0.813623959
29710000000,-0.813510486
29720000000,-0.813350968
29730000000,-0.813156389
29740000000,-0.812935179
29750000000,-0.812682592
29760000000,-0.812403683
29770000000,-0.812098135
29780000000,-0.811758383
29790000000,-0.811391905
29800000000,-0.811000245
29810000000,-0.810574438
29820000000,-0.81012012
29830000000,-0.809629636
29840000000,-0.809100873
29850000000,-0.808535353
29860000000,-0.807945813
29870000000,-0.807330727
29880000000,-0.806672477
29890000000,-0.805992321
29900000000,-0.805283505
29910000000,-0.804556195
29920000000,-0.803814508
29930000000,-0.80305348
29940000000,-0.802270925
29950000000,-0.801469361
29960000000,-0.800649888
29970000000,-0.79980883
29980000000,-0.798945292
29990000000,-0.798058795
30000000000,-0.797161536
30010000000,-0.796250394
30020000000,-0.795321361
30030000000,-0.794385905
30040000000,-0.793437189
30050000000,-0.792479517
30060000000,-0.791515044
30070000000,-0.790548807
30080000000,-0.789575226
30090000000,-0.788585395
30100000000,-0.787600137
30110000000,-0.786614637
30120000000,-0.785624375
30130000000,-0.784629855
30140000000,-0.783637494
30150000000,-0.78264789
30160000000,-0.781661069
30170000000,-0.780676584
30180000000,-0.779702122
30190000000,-0.778738785
30200000000,-0.77778136
30210000000,-0.776838439
30220000000,-0.775904864
30230000000,-0.774990009
30240000000,-0.774088517
30250000000,-0.773196868
30260000000,-0.772334294
30270000000,-0.771486177
30280000000,-0.770656882
30290000000,-0.769843848
30300000000,-0.769047883
30310000000,-0.768264144
30320000000,-0.767496196
30330000000,-0.766744532
30340000000,-0.766006817
30350000000,-0.765287903
30360000000,-0.764594345
30370000000,-0.763921804
30380000000,-0.763278821
30390000000,-0.762662919
30400000000,-0.762073148
30410000000,-0.76151004
30420000000,-0.760975249
30430000000,-0.760469395
30440000000,-0.759986196
30450000000,-0.759531075
30460000000,-0.759094933
30470000000,-0.758688453
30480000000,-0.758308103
30490000000,-0.757953469
30500000000,-0.757627948
30510000000,-0.75732179
30520000000,-0.757035643
30530000000,-0.756780825
30540000000,-0.756552593
30550000000,-0.756347494
30560000000,-0.756167032
30570000000,-0.756007155
30580000000,-0.755863987
30590000000,-0.755732368
30600000000,-0.755623808
30610000000,-0.755544391
30620000000,-0.755478557
30630000000,-0.75542794
30640000000,-0.755408645
30650000000,-0.755394046
30660000000,-0.755391351
30670000000,-0.755412538
30680000000,-0.755442029
30690000000,-0.755492204
30700000000,-0.755540639
30710000000,-0.755597291
30720000000,-0.755663835
30730000000,-0.755727191
30740000000,-0.755796706
30750000000,-0.755877238
30760000000,-0.755967345
30770000000,-0.75606959
30780000000,-0.756172079
30790000000,-0.756287132
30800000000,-0.756413598
30810000000,-0.756559545
30820000000,-0.756693062
30830000000,-0.756823684
30840000000,-0.75694613
30850000000,-0.757055719
30860000000,-0.757151032
30870000000,-0.757245435
30880000000,-0.757331075
30890000000,-0.75741513
30900000000,-0.757497049
30910000000,-0.757568194
30920000000,-0.757658251
30930000000,-0.757739372
30940000000,-0.757822256
30950000000,-0.757903252
30960000000,-0.757978271
30970000000,-0.758036248
30980000000,-0.758086225
30990000000,-0.758119338
31000000000,-0.758120506
31010000000,-0.758115945
31020000000,-0.758085056
31030000000,-0.758038929
31040000000,-0.7579714
31050000000,-0.757888632
31060000000,-0.757794256
31070000000,-0.757688644
31080000000,-0.757571973
31090000000,-0.757444573
31100000000,-0.757303384
31110000000,-0.757148528
31120000000,-0.756978412
31130000000,-0.756791566
31140000000,-0.756581753
31150000000,-0.756354513
31160000000,-0.756118132
31170000000,-0.755862277
31180000000,-0.755576101
31190000000,-0.75526039
31200000000,-0.754920975
31210000000,-0.754563526
31220000000,-0.754178219
31230000000,-0.753772443
31240000000,-0.753352469
31250000000,-0.752916827
31260000000,-0.752464744
31270000000,-0.752005793
31280000000,-0.751545645
31290000000,-0.751076243
31300000000,-0.75058555
31310000000,-0.750084933
31320000000,-0.749568427
31330000000,-0.749031232
31340000000,-0.748466926
31350000000,-0.747879463
31360000000,-0.747270914
31370000000,-0.746634198
31380000000,-0.745978328
31390000000,-0.745319641
31400000000,-0.744655015
31410000000,-0.744003136
31420000000,-0.743354456
31430000000,-0.742709169
31440000000,-0.742066432
31450000000,-0.741424191
31460000000,-0.740781605
31470000000,-0.740130302
31480000000,-0.73947293
31490000000,-0.73880616
31500000000,-0.73813776
31510000000,-0.737464887
31520000000,-0.736789644
31530000000,-0.736119296
31540000000,-0.735461249
31550000000,-0.734801613
31560000000,-0.734146613
31570000000,-0.733499002
31580000000,-0.732865138
31590000000,-0.73224089
31600000000,-0.731642611
31610000000,-0.73105557
31620000000,-0.730476201
31630000000,-0.729917505
31640000000,-0.729383624
31650000000,-0.728852013
31660000000,-0.728339397
31670000000,-0.727844784
31680000000,-0.727362662
31690000000,-0.72689108
31700000000,-0.726434256
31710000000,-0.725990395
31720000000,-0.725583091
31730000000,-0.725188077
31740000000,-0.724817866
31750000000,-0.724485726
31760000000,-0.724181398
31770000000,-0.723904462
31780000000,-0.723667734
31790000000,-0.723468645
31800000000,-0.72329848
31810000000,-0.723155091
31820000000,-0.723031407
31830000000,-0.722921501
31840000000,-0.722841634
31850000000,-0.722773177
31860000000,-0.722721203
31870000000,-0.722687229
31880000000,-0.722705807
31890000000,-0.722741619
31900000000,-0.722828333
31910000000,-0.722944752
31920000000,-0.72310459
31930000000,-0.723299225
31940000000,-0.723533799
31950000000,-0.723803578
31960000000,-0.724101337
31970000000,-0.724422747
31980000000,-0.724771233
31990000000,-0.725144871
32000000000,-0.725531915
32010000000,-0.725934476
32020000000,-0.726369766
32030000000,-0.72682818
32040000000,-0.727311357
32050000000,-0.72782348
32060000000,-0.728368304
32070000000,-0.728939781
32080000000,-0.729544379
32090000000,-0.730184982
32100000000,-0.730857647
32110000000,-0.73155129
32120000000,-0.732281478
32130000000,-0.733036742
32140000000,-0.733813217
32150000000,-0.734609208
32160000000,-0.735415007
32170000000,-0.736236496
32180000000,-0.737067403
32190000000,-0.737915903
32200000000,-0.738782885
32210000000,-0.739653718
32220000000,-0.740551199
32230000000,-0.741466778
32240000000,-0.742404516
32250000000,-0.743362463
32260000000,-0.744325667
32270000000,-0.745303259
32280000000,-0.746287849
32290000000,-0.747284574
32300000000,-0.748278551
32310000000,-0.74927832
32320000000,-0.750285263
32330000000,-0.751295968
32340000000,-0.752321016
32350000000,-0.75335391
32360000000,-0.754397144
32370000000,-0.755452156
32380000000,-0.756504592
32390000000,-0.757561701
32400000000,-0.758614141
32410000000,-0.759655825
32420000000,-0.760693864
32430000000,-0.761714191
32440000000,-0.762724473
32450000000,-0.763725292
32460000000,-0.764712609
32470000000,-0.765687067
32480000000,-0.766656712
32490000000,-0.767622507
32500000000,-0.768571424
32510000000,-0.769505669
32520000000,-0.770434956
32530000000,-0.771348099
32540000000,-0.7722415
32550000000,-0.773121003
32560000000,-0.773983579
32570000000,-0.774818487
32580000000,-0.775633524
32590000000,-0.776427414
32600000000,-0.777187686
32610000000,-0.777918917
32620000000,-0.778634805
32630000000,-0.779332453
32640000000,-0.780001878
32650000000,-0.780660628
32660000000,-0.781299093
32670000000,-0.781922545
32680000000,-0.782534822
32690000000,-0.783131553
32700000000,-0.783717731
32710000000,-0.784277775
32720000000,-0.784814466
32730000000,-0.785328863
32740000000,-0.785813021
32750000000,-0.786268675
32760000000,-0.786694732
32770000000,-0.78709279
32780000000,-0.787461696
32790000000,-0.787802973
32800000000,-0.788135132
32810000000,-0.788438867
32820000000,-0.788735293
32830000000,-0.789014843
32840000000,-0.78928245
32850000000,-0.789528404
32860000000,-0.789767549
32870000000,-0.789970644
32880000000,-0.790150602
32890000000,-0.790300296
32900000000,-0.79042661
32910000000,-0.790540705
32920000000,-0.790625503
32930000000,-0.790700454
32940000000,-0.790768458
32950000000,-0.790828239
32960000000,-0.790864482
32970000000,-0.790902356
32980000000,-0.79093225
32990000000,-0.790961656
33000000000,-0.790985371
33010000000,-0.790994909
33020000000,-0.791006126
33030000000,-0.791004754
33040000000,-0.791004825
33050000000,-0.791001225
33060000000,-0.790995269
33070000000,-0.790987997
33080000000,-0.790988586
33090000000,-0.790997882
33100000000,-0.791014666
33110000000,-0.791051045
33120000000,-0.791097228
33130000000,-0.791156238
33140000000,-0.791240841
33150000000,-0.791333742
33160000000,-0.791438344
33170000000,-0.79155598
33180000000,-0.791690728
33190000000,-0.791848475
33200000000,-0.792028405
33210000000,-0.792224506
33220000000,-0.792443452
33230000000,-0.792699465
33240000000,-0.792975625
33250000000,-0.793277949
33260000000,-0.793620314
33270000000,-0.793988857
33280000000,-0.794386509
33290000000,-0.794813498
33300000000,-0.795270451
33310000000,-0.795758219
33320000000,-0.796261329
33330000000,-0.796800095
33340000000,-0.797367994
33350000000,-0.797961215
33360000000,-0.798588319
33370000000,-0.799256989
33380000000,-0.799962588
33390000000,-0.800700672
33400000000,-0.801471157
33410000000,-0.802272615
33420000000,-0.803112187
33430000000,-0.803976731
33440000000,-0.804873427
33450000000,-0.805809554
33460000000,-0.806770821
33470000000,-0.807774558
33480000000,-0.80880309
33490000000,-0.809865413
33500000000,-0.810958339
33510000000,-0.81207168
33520000000,-0.81321627
33530000000,-0.814395893
33540000000,-0.815595091
33550000000,-0.816830892
33560000000,-0.818094919
33570000000,-0.819386905
33580000000,-0.820699098
33590000000,-0.822040033
33600000000,-0.823396054
33610000000,-0.824777424
33620000000,-0.82618767
33630000000,-0.827613129
33640000000,-0.829060587
33650000000,-0.830538425
33660000000,-0.832028697
33670000000,-0.833542022
33680000000,-0.835083819
33690000000,-0.836641948
33700000000,-0.838213751
33710000000,-0.839801876
33720000000,-0.841389206
33730000000,-0.842989886
33740000000,-0.84459534
33750000000,-0.846193423
33760000000,-0.847794756
33770000000,-0.849403416
33780000000,-0.851010727
33790000000,-0.852614584
33800000000,-0.85421961
33810000000,-0.855836795
33820000000,-0.857465199
33830000000,-0.859096863
33840000000,-0.860718262
33850000000,-0.862341601
33860000000,-0.863949297
33870000000,-0.865551587
33880000000,-0.867118589
33890000000,-0.868669218
33900000000,-0.870181188
33910000000,-0.871667444
33920000000,-0.873122165
33930000000,-0.874555521
33940000000,-0.875963165
33950000000,-0.877347984
33960000000,-0.878704361
33970000000,-0.880045422
33980000000,-0.881365741
33990000000,-0.882673254
34000000000,-0.883950875
34010000000,-0.885205065
34020000000,-0.886419186
34030000000,-0.887599789
34040000000,-0.888743136
34050000000,-0.889842481
34060000000,-0.890893492
34070000000,-0.89190789
34080000000,-0.892882887
34090000000,-0.893812994
34100000000,-0.894691724
34110000000,-0.895525021
34120000000,-0.896304871
34130000000,-0.897050376
34140000000,-0.897762308
34150000000,-0.8984339
34160000000,-0.899069154
34170000000,-0.899665765
34180000000,-0.900220368
34190000000,-0.90072718
34200000000,-0.901194175
34210000000,-0.901615011
34220000000,-0.901973506
34230000000,-0.90227179
34240000000,-0.902517398
34250000000,-0.902704866
34260000000,-0.902844927
34270000000,-0.902936648
34280000000,-0.90298062
34290000000,-0.902985756
34300000000,-0.902963784
34310000000,-0.902911728
34320000000,-0.902821604
34330000000,-0.902702983
34340000000,-0.90253969
34350000000,-0.902333406
34360000000,-0.902073163
34370000000,-0.901758247
34380000000,-0.901394191
34390000000,-0.900981974
34400000000,-0.900531296
34410000000,-0.900047128
34420000000,-0.899516555
34430000000,-0.898959043
34440000000,-0.898378188
34450000000,-0.89777389
34460000000,-0.897147069
34470000000,-0.896507145
34480000000,-0.895832884
34490000000,-0.895123078
34500000000,-0.894389057
34510000000,-0.893617172
34520000000,-0.89281603
34530000000,-0.891975469
34540000000,-0.891106637
34550000000,-0.890201944
34560000000,-0.889272535
34570000000,-0.888321979
34580000000,-0.887344976
34590000000,-0.886354562
34600000000,-0.885356211
34610000000,-0.884339932
34620000000,-0.883300045
34630000000,-0.882248268
34640000000,-0.881187782
34650000000,-0.880116889
34660000000,-0.87904649
34670000000,-0.877961339
34680000000,-0.876870476
34690000000,-0.875766126
34700000000,-0.874644614
34710000000,-0.87351953
34720000000,-0.872382295
34730000000,-0.871236912
34740000000,-0.870096466
34750000000,-0.868959214
34760000000,-0.86782372
34770000000,-0.866699854
34780000000,-0.865595571
34790000000,-0.864502398
34800000000,-0.863423684
34810000000,-0.862368291
34820000000,-0.861317118
34830000000,-0.860283663
34840000000,-0.859265555
34850000000,-0.858253024
34860000000,-0.857237329
34870000000,-0.85624699
34880000000,-0.855257788
34890000000,-0.854288351
34900000000,-0.853342346
34910000000,-0.852420624
34920000000,-0.851522043
34930000000,-0.850654961
34940000000,-0.849814011
34950000000,-0.848995203
34960000000,-0.848218287
34970000000,-0.847468268
34980000000,-0.846748386
34990000000,-0.846051607
35000000000,-0.845375506
35010000000,-0.844728527
35020000000,-0.844098736
35030000000,-0.84349969
35040000000,-0.842944364
35050000000,-0.842421716
35060000000,-0.841942842
35070000000,-0.841505016
35080000000,-0.841098883
35090000000,-0.840727898
35100000000,-0.84038492
35110000000,-0.840078441
35120000000,-0.839798585
35130000000,-0.83955713
35140000000,-0.839344218
35150000000,-0.839185266
35160000000,-0.839063516
35170000000,-0.83899397
35180000000,-0.838966858
35190000000,-0.838986611
35200000000,-0.839042985
35210000000,-0.839139925
35220000000,-0.839279043
35230000000,-0.839450012
35240000000,-0.83966044
35250000000,-0.839912988
35260000000,-0.840195013
35270000000,-0.840503651
35280000000,-0.840854847
35290000000,-0.841246143
35300000000,-0.841684318
35310000000,-0.842163813
35320000000,-0.842700895
35330000000,-0.843270797
35340000000,-0.843884443
35350000000,-0.844533542
35360000000,-0.845226531
35370000000,-0.845965887
35380000000,-0.846751755
35390000000,-0.847571727
35400000000,-0.848441715
35410000000,-0.849349817
35420000000,-0.850302444
35430000000,-0.851296789
35440000000,-0.852338106
35450000000,-0.853411506
35460000000,-0.854528136
35470000000,-0.85568543
35480000000,-0.856893968
35490000000,-0.858144372
35500000000,-0.859442652
35510000000,-0.86079088
35520000000,-0.862184306
35530000000,-0.863609876
35540000000,-0.865076544
35550000000,-0.866585697
35560000000,-0.868126085
35570000000,-0.869697312
35580000000,-0.871303091
35590000000,-0.87292074
35600000000,-0.874571584
35610000000,-0.876252701
35620000000,-0.877964756
35630000000,-0.879722787
35640000000,-0.881507252
35650000000,-0.883336582
35660000000,-0.885203469
35670000000,-0.887106722
35680000000,-0.889038804
35690000000,-0.891005913
35700000000,-0.893005406
35710000000,-0.89501764
35720000000,-0.897050212
35730000000,-0.899107431
35740000000,-0.901181928
35750000000,-0.903281946
35760000000,-0.905412322
35770000000,-0.907565506
35780000000,-0.909742151
35790000000,-0.911960869
35800000000,-0.914197819
35810000000,-0.916474183
35820000000,-0.918758922
35830000000,-0.921066652
35840000000,-0.923391764
35850000000,-0.925725762
35860000000,-0.928066388
35870000000,-0.930412334
35880000000,-0.932769397
35890000000,-0.935146953
35900000000,-0.937541349
35910000000,-0.939953896
35920000000,-0.942376875
35930000000,-0.944823995
35940000000,-0.947283538
35950000000,-0.949760807
35960000000,-0.952247581
35970000000,-0.954758154
35980000000,-0.957271888
35990000000,-0.959783352
36000000000,-0.96230859
36010000000,-0.964832858
36020000000,-0.96737486
36030000000,-0.969921723
36040000000,-0.972463357
36050000000,-0.97501622
36060000000,-0.977580828
36070000000,-0.980147129
36080000000,-0.982719891
36090000000,-0.985303025
36100000000,-0.987902751
36110000000,-0.990517183
36120000000,-0.993139259
36130000000,-0.995770708
36140000000,-0.998406955
36150000000,-1.001055514
36160000000,-1.003735512
36170000000,-1.006412156
36180000000,-1.009106034
36190000000,-1.011819785
36200000000,-1.014534874
36210000000,-1.017277733
36220000000,-1.020046514
36230000000,-1.022829431
36240000000,-1.025631904
36250000000,-1.028472435
36260000000,-1.031328614
36270000000,-1.034207946
36280000000,-1.037118836
36290000000,-1.040041722
36300000000,-1.042989701
36310000000,-1.045951391
36320000000,-1.048938765
36330000000,-1.05196296
36340000000,-1.055017721
36350000000,-1.058105841
36360000000,-1.061228738
36370000000,-1.064415679
36380000000,-1.067646445
36390000000,-1.0709215
36400000000,-1.074238455
36410000000,-1.077597265
36420000000,-1.081017242
36430000000,-1.084483676
36440000000,-1.087994338
36450000000,-1.091544308
36460000000,-1.095161666
36470000000,-1.098822609
36480000000,-1.102551423
36490000000,-1.106369064
36500000000,-1.110256043
36510000000,-1.114233468
36520000000,-1.118297139
36530000000,-1.122451477
36540000000,-1.126681053
36550000000,-1.1309929
36560000000,-1.135403471
36570000000,-1.139896789
36580000000,-1.144476725
36590000000,-1.14914555
36600000000,-1.153913943
36610000000,-1.158782304
36620000000,-1.163755544
36630000000,-1.168845594
36640000000,-1.174050893
36650000000,-1.179366827
36660000000,-1.184788074
36670000000,-1.190320854
36680000000,-1.195964523
36690000000,-1.201722973
36700000000,-1.207611632
36710000000,-1.21361321
36720000000,-1.219743639
36730000000,-1.226000874
36740000000,-1.232377877
36750000000,-1.238886529
36760000000,-1.245514288
36770000000,-1.252260389
36780000000,-1.259130402
36790000000,-1.26611937
36800000000,-1.273219965
36810000000,-1.280437112
36820000000,-1.2877868
36830000000,-1.295266974
36840000000,-1.302863251
36850000000,-1.310596084
36860000000,-1.318467311
36870000000,-1.326458855
36880000000,-1.33458196
36890000000,-1.342833657
36900000000,-1.351192606
36910000000,-1.359658574
36920000000,-1.368238477
36930000000,-1.376915202
36940000000,-1.385696034
36950000000,-1.394592481
36960000000,-1.403599254
36970000000,-1.41271313
36980000000,-1.421927123
36990000000,-1.431250284
37000000000,-1.440692266
37010000000,-1.450238174
37020000000,-1.459900255
37030000000,-1.469663662
37040000000,-1.479514164
37050000000,-1.489466174
37060000000,-1.499500865
37070000000,-1.509614202
37080000000,-1.519815626
37090000000,-1.530091337
37100000000,-1.540450484
37110000000,-1.550862107
37120000000,-1.561352199
37130000000,-1.57189547
37140000000,-1.582494817
37150000000,-1.593146051
37160000000,-1.603861297
37170000000,-1.614622494
37180000000,-1.625439109
37190000000,-1.636311805
37200000000,-1.647222736
37210000000,-1.658179259
37220000000,-1.669181338
37230000000,-1.680204502
37240000000,-1.691241213
37250000000,-1.702279919
37260000000,-1.713328838
37270000000,-1.724380964
37280000000,-1.735412706
37290000000,-1.746425859
37300000000,-1.757406777
37310000000,-1.768352342
37320000000,-1.779257322
37330000000,-1.790131864
37340000000,-1.800973088
37350000000,-1.811783862
37360000000,-1.82253444
37370000000,-1.833228315
37380000000,-1.843857659
37390000000,-1.854419339
37400000000,-1.864880487
37410000000,-1.875244163
37420000000,-1.885491277
37430000000,-1.895625394
37440000000,-1.905625133
37450000000,-1.915501877
37460000000,-1.925246523
37470000000,-1.934854329
37480000000,-1.944316712
37490000000,-1.953639084
37500000000,-1.962797369
37510000000,-1.97179795
37520000000,-1.980657485
37530000000,-1.98937159
37540000000,-1.99792379
37550000000,-2.006308423
37560000000,-2.01452309
37570000000,-2.022552556
37580000000,-2.030383269
37590000000,-2.038037675
37600000000,-2.045491878
37610000000,-2.052726607
37620000000,-2.05974173
37630000000,-2.066542219
37640000000,-2.07311926
37650000000,-2.079473762
37660000000,-2.085609924
37670000000,-2.091527135
37680000000,-2.0972228
37690000000,-2.102701018
37700000000,-2.107954224
37710000000,-2.113005205
37720000000,-2.117835831
37730000000,-2.122440846
37740000000,-2.126818164
37750000000,-2.13095704
37760000000,-2.134855166
37770000000,-2.138530336
37780000000,-2.141967447
37790000000,-2.145168191
37800000000,-2.148157057
37810000000,-2.150896632
37820000000,-2.153426888
37830000000,-2.155733271
37840000000,-2.15781139
37850000000,-2.159690579
37860000000,-2.16136135
37870000000,-2.162824735
37880000000,-2.164090167
37890000000,-2.165143338
37900000000,-2.165994536
37910000000,-2.166643192
37920000000,-2.167093667
37930000000,-2.167344988
37940000000,-2.167402511
37950000000,-2.167277129
37960000000,-2.166969104
37970000000,-2.166451656
37980000000,-2.165755537
37990000000,-2.164879033
38000000000,-2.163825258
38010000000,-2.162593223
38020000000,-2.161180361
38030000000,-2.15959566
38040000000,-2.157861105
38050000000,-2.155975594
38060000000,-2.153941723
38070000000,-2.151764266
38080000000,-2.149457423
38090000000,-2.147026661
38100000000,-2.144453283
38110000000,-2.141759778
38120000000,-2.13893068
38130000000,-2.135989839
38140000000,-2.13291501
38150000000,-2.129722289
38160000000,-2.126379067
38170000000,-2.122947264
38180000000,-2.119404271
38190000000,-2.115747648
38200000000,-2.11200447
38210000000,-2.108180703
38220000000,-2.104280488
38230000000,-2.100307239
38240000000,-2.096273671
38250000000,-2.092153731
38260000000,-2.087971395
38270000000,-2.083724288
38280000000,-2.079406279
38290000000,-2.075013305
38300000000,-2.070559451
38310000000,-2.066044468
38320000000,-2.061454333
38330000000,-2.056794879
38340000000,-2.052086812
38350000000,-2.047327644
38360000000,-2.042538231
38370000000,-2.037703477
38380000000,-2.032849291
38390000000,-2.027965257
38400000000,-2.023082143
38410000000,-2.018171209
38420000000,-2.013210098
38430000000,-2.008202216
38440000000,-2.003167082
38450000000,-1.998101535
38460000000,-1.992991026
38470000000,-1.987860915
38480000000,-1.982696895
38490000000,-1.977498056
38500000000,-1.972294555
38510000000,-1.967071782
38520000000,-1.961844075
38530000000,-1.956614769
38540000000,-1.951394009
38550000000,-1.94616599
38560000000,-1.940921697
38570000000,-1.935680988
38580000000,-1.930443618
38590000000,-1.925201993
38600000000,-1.919963965
38610000000,-1.914729971
38620000000,-1.909513236
38630000000,-1.904283615
38640000000,-1.899069899
38650000000,-1.893894878
38660000000,-1.888744972
38670000000,-1.883648723
38680000000,-1.878606325
38690000000,-1.873613359
38700000000,-1.868657312
38710000000,-1.863777155
38720000000,-1.858953708
38730000000,-1.854190994
38740000000,-1.849481803
38750000000,-1.844824981
38760000000,-1.840247798
38770000000,-1.835750751
38780000000,-1.831320207
38790000000,-1.826968786
38800000000,-1.822699179
38810000000,-1.818510352
38820000000,-1.814409755
38830000000,-1.810403887
38840000000,-1.80649531
38850000000,-1.802679362
38860000000,-1.798968426
38870000000,-1.795343275
38880000000,-1.791816685
38890000000,-1.788360568
38900000000,-1.785014788
38910000000,-1.781775101
38920000000,-1.778632942
38930000000,-1.775589004
38940000000,-1.77266521
38950000000,-1.769848652
38960000000,-1.767138362
38970000000,-1.764550359
38980000000,-1.762089755
38990000000,-1.759732347
39000000000,-1.757487101
39010000000,-1.755357931
39020000000,-1.753316309
39030000000,-1.751383598
39040000000,-1.749568877
39050000000,-1.747863015
39060000000,-1.746253183
39070000000,-1.744759528
39080000000,-1.743385947
39090000000,-1.742124015
39100000000,-1.740995626
39110000000,-1.73998618
39120000000,-1.73910685
39130000000,-1.738350362
39140000000,-1.737699729
39150000000,-1.737124629
39160000000,-1.736662606
39170000000,-1.736285406
39180000000,-1.736014114
39190000000,-1.735821479
39200000000,-1.735727064
39210000000,-1.735721315
39220000000,-1.735783999
39230000000,-1.735944521
39240000000,-1.736219341
39250000000,-1.736591151
39260000000,-1.737039611
39270000000,-1.737576652
39280000000,-1.738178863
39290000000,-1.738863437
39300000000,-1.739625194
39310000000,-1.740489306
39320000000,-1.741418115
39330000000,-1.742401695
39340000000,-1.743429018
39350000000,-1.74451243
39360000000,-1.745644414
39370000000,-1.746819858
39380000000,-1.748042499
39390000000,-1.749304341
39400000000,-1.750620823
39410000000,-1.751989736
39420000000,-1.753397974
39430000000,-1.754827956
39440000000,-1.756313028
39450000000,-1.757811943
39460000000,-1.759338215
39470000000,-1.76086132
39480000000,-1.762391896
39490000000,-1.763916348
39500000000,-1.765428942
39510000000,-1.766936311
39520000000,-1.76839576
39530000000,-1.769827876
39540000000,-1.771227521
39550000000,-1.772594963
39560000000,-1.773929467
39570000000,-1.775232248
39580000000,-1.776516852
39590000000,-1.777755725
39600000000,-1.778962726
39610000000,-1.780132061
39620000000,-1.781265192
39630000000,-1.782335021
39640000000,-1.783356904
39650000000,-1.784315346
39660000000,-1.785218135
39670000000,-1.786049189
39680000000,-1.786811253
39690000000,-1.787501503
39700000000,-1.788109297
39710000000,-1.788625755
39720000000,-1.789068782
39730000000,-1.789438764
39740000000,-1.789719725
39750000000,-1.789929515
39760000000,-1.790070579
39770000000,-1.790117978
39780000000,-1.79008584
39790000000,-1.789967705
39800000000,-1.78973936
39810000000,-1.789428826
39820000000,-1.78901809
39830000000,-1.788515177
39840000000,-1.787942668
39850000000,-1.787257349
39860000000,-1.786487992
39870000000,-1.785633615
39880000000,-1.784688395
39890000000,-1.783663992
39900000000,-1.782563588
39910000000,-1.781388125
39920000000,-1.780151254
39930000000,-1.778840688
39940000000,-1.777446666
39950000000,-1.775981313
39960000000,-1.774463897
39970000000,-1.772912445
39980000000,-1.771298213
39990000000,-1.769645568
40000000000,-1.767946869
40010000000,-1.766209579
40020000000,-1.764441307
40030000000,-1.762648894
40040000000,-1.760837989
40050000000,-1.758978849
40060000000,-1.757102479
40070000000,-1.755194428
40080000000,-1.753279192
40090000000,-1.75134915
40100000000,-1.749429602
40110000000,-1.747503865
40120000000,-1.745585116
40130000000,-1.743668379
40140000000,-1.741774681
40150000000,-1.739875583
40160000000,-1.737997982
40170000000,-1.736122951
40180000000,-1.734268932
40190000000,-1.732423317
40200000000,-1.730599626
40210000000,-1.728797049
40220000000,-1.727012686
40230000000,-1.72526664
40240000000,-1.723559524
40250000000,-1.721893325
40260000000,-1.72027645
40270000000,-1.718704988
40280000000,-1.717181165
40290000000,-1.715709908
40300000000,-1.714281638
40310000000,-1.712900866
40320000000,-1.711593954
40330000000,-1.710332974
40340000000,-1.709124169
40350000000,-1.707986274
40360000000,-1.706913999
40370000000,-1.705897355
40380000000,-1.704949868
40390000000,-1.704052643
40400000000,-1.703191038
40410000000,-1.702385149
40420000000,-1.701637823
40430000000,-1.700962218
40440000000,-1.700342568
40450000000,-1.699786588
40460000000,-1.699307357
40470000000,-1.698873098
40480000000,-1.698517218
40490000000,-1.698239415
40500000000,-1.698001661
40510000000,-1.697831237
40520000000,-1.697697685
40530000000,-1.697590097
40540000000,-1.697508077
40550000000,-1.697465161
40560000000,-1.697425117
40570000000,-1.697402468
40580000000,-1.697392061
40590000000,-1.697410589
40600000000,-1.697448673
40610000000,-1.697506884
40620000000,-1.69757779
40630000000,-1.697702472
40640000000,-1.69783525
40650000000,-1.697979602
40660000000,-1.698149575
40670000000,-1.698307196
40680000000,-1.698435854
40690000000,-1.698534949
40700000000,-1.698618478
40710000000,-1.698654349
40720000000,-1.698631666
40730000000,-1.698587464
40740000000,-1.698490357
40750000000,-1.698360606
40760000000,-1.698195322
40770000000,-1.697984272
40780000000,-1.697741542
40790000000,-1.697478395
40800000000,-1.697166045
40810000000,-1.696815265
40820000000,-1.696416971
40830000000,-1.695969967
40840000000,-1.695472768
40850000000,-1.694903606
40860000000,-1.694257121
40870000000,-1.693559099
40880000000,-1.692803666
40890000000,-1.69196915
40900000000,-1.691046093
40910000000,-1.690042028
40920000000,-1.688953788
40930000000,-1.68779684
40940000000,-1.686532698
40950000000,-1.685198589
40960000000,-1.683786261
40970000000,-1.682301595
40980000000,-1.680745401
40990000000,-1.679112327
41000000000,-1.677406044
41010000000,-1.675608731
41020000000,-1.673733441
41030000000,-1.671763403
41040000000,-1.669680345
41050000000,-1.66747569
41060000000,-1.665186825
41070000000,-1.66279925
41080000000,-1.660306296
41090000000,-1.657732726
41100000000,-1.655071171
41110000000,-1.652331736
41120000000,-1.64952141
41130000000,-1.646632242
41140000000,-1.64367205
41150000000,-1.640656953
41160000000,-1.637526998
41170000000,-1.634331268
41180000000,-1.631022269
41190000000,-1.627621282
41200000000,-1.624153692
41210000000,-1.620606944
41220000000,-1.617008617
41230000000,-1.613348773
41240000000,-1.609629804
41250000000,-1.605857178
41260000000,-1.60205257
41270000000,-1.598204178
41280000000,-1.594325378
41290000000,-1.590408839
41300000000,-1.586463846
41310000000,-1.582441392
41320000000,-1.578381591
41330000000,-1.574305408
41340000000,-1.570213622
41350000000,-1.566088748
41360000000,-1.561956467
41370000000,-1.557805082
41380000000,-1.553640776
41390000000,-1.549479179
41400000000,-1.545304566
41410000000,-1.54111054
41420000000,-1.536936407
41430000000,-1.532786168
41440000000,-1.528625621
41450000000,-1.524474324
41460000000,-1.520326101
41470000000,-1.516209122
41480000000,-1.512095583
41490000000,-1.508010893
41500000000,-1.503959429
41510000000,-1.499916392
41520000000,-1.495925365
41530000000,-1.491952963
41540000000,-1.488016836
41550000000,-1.484087336
41560000000,-1.480212978
41570000000,-1.476354533
41580000000,-1.472522459
41590000000,-1.468743353
41600000000,-1.464993803
41610000000,-1.4613023
41620000000,-1.457666421
41630000000,-1.454090595
41640000000,-1.450570127
41650000000,-1.447091608
41660000000,-1.443661088
41670000000,-1.440286308
41680000000,-1.436971314
41690000000,-1.433713036
41700000000,-1.430536386
41710000000,-1.427425948
41720000000,-1.4243781
41730000000,-1.421400177
41740000000,-1.418489736
41750000000,-1.415648029
41760000000,-1.412850959
41770000000,-1.410126521
41780000000,-1.407460925
41790000000,-1.404854195
41800000000,-1.402337447
41810000000,-1.399872665
41820000000,-1.397508833
41830000000,-1.395212946
41840000000,-1.392984959
41850000000,-1.390830903
41860000000,-1.388748144
41870000000,-1.386704306
41880000000,-1.384709368
41890000000,-1.38278199
41900000000,-1.380864126
41910000000,-1.378984823
41920000000,-1.37713401
41930000000,-1.375319354
41940000000,-1.373580932
41950000000,-1.371897991
41960000000,-1.370263336
41970000000,-1.368673362
41980000000,-1.367139586
41990000000,-1.365648288
42000000000,-1.364193881
42010000000,-1.362773287
42020000000,-1.361378647
42030000000,-1.360011339
42040000000,-1.358641692
42050000000,-1.357314137
42060000000,-1.355985179
42070000000,-1.354668208
42080000000,-1.353335551
42090000000,-1.352012862
42100000000,-1.350705983
42110000000,-1.349422597
42120000000,-1.348177452
42130000000,-1.346947163
42140000000,-1.345723899
42150000000,-1.344531843
42160000000,-1.343372745
42170000000,-1.342206077
42180000000,-1.341065664
42190000000,-1.339909312
42200000000,-1.338748966
42210000000,-1.337575779
42220000000,-1.336386847
42230000000,-1.335195571
42240000000,-1.333987854
42250000000,-1.332773332
42260000000,-1.331559877
42270000000,-1.330352676
42280000000,-1.32915124
42290000000,-1.327957703
42300000000,-1.326769725
42310000000,-1.325585093
42320000000,-1.324379661
42330000000,-1.32315714
42340000000,-1.321930331
42350000000,-1.32067971
42360000000,-1.319397986
42370000000,-1.318101014
42380000000,-1.3167697
42390000000,-1.315420735
42400000000,-1.314074852
42410000000,-1.312713809
42420000000,-1.311375124
42430000000,-1.310022197
42440000000,-1.308664686
42450000000,-1.307279524
42460000000,-1.30588461
42470000000,-1.304478191
42480000000,-1.303041736
42490000000,-1.301571704
42500000000,-1.300084494
42510000000,-1.298576568
42520000000,-1.297075118
42530000000,-1.295562128
42540000000,-1.294057988
42550000000,-1.292537127
42560000000,-1.29106057
42570000000,-1.289593006
42580000000,-1.288118789
42590000000,-1.286636632
42600000000,-1.285153551
42610000000,-1.283660757
42620000000,-1.282175892
42630000000,-1.280671136
42640000000,-1.279161979
42650000000,-1.277641258
42660000000,-1.276117409
42670000000,-1.274591593
42680000000,-1.273106574
42690000000,-1.271660208
42700000000,-1.270227705
42710000000,-1.268826641
42720000000,-1.26747623
42730000000,-1.26611899
42740000000,-1.264801023
42750000000,-1.263501409
42760000000,-1.26219348
42770000000,-1.260863237
42780000000,-1.259557735
42790000000,-1.258234195
42800000000,-1.256926281
42810000000,-1.255651211
42820000000,-1.25436831
42830000000,-1.253101244
42840000000,-1.251856434
42850000000,-1.250665404
42860000000,-1.249482069
42870000000,-1.2483003
42880000000,-1.247122965
42890000000,-1.245983517
42900000000,-1.244855042
42910000000,-1.243735849
42920000000,-1.242625563
42930000000,-1.241538392
42940000000,-1.240463624
42950000000,-1.239392852
42960000000,-1.238337154
42970000000,-1.237276683
42980000000,-1.236193955
42990000000,-1.235117107
43000000000,-1.233993288
43010000000,-1.232891126
43020000000,-1.231788006
43030000000,-1.230709523
43040000000,-1.229652582
43050000000,-1.228645931
43060000000,-1.227648375
43070000000,-1.226665338
43080000000,-1.225692554
43090000000,-1.224731369
43100000000,-1.223744906
43110000000,-1.222760218
43120000000,-1.221730052
43130000000,-1.220636608
43140000000,-1.219527876
43150000000,-1.218399044
43160000000,-1.217264187
43170000000,-1.216116404
43180000000,-1.214987366
43190000000,-1.213843221
43200000000,-1.212694116
43210000000,-1.21153788
43220000000,-1.210371405
43230000000,-1.209175815
43240000000,-1.207942055
43250000000,-1.206660612
43260000000,-1.205340548
43270000000,-1.203962448
43280000000,-1.202556267
43290000000,-1.201112772
43300000000,-1.19964897
43310000000,-1.198167647
43320000000,-1.196663465
43330000000,-1.195120901
43340000000,-1.193586147
43350000000,-1.192040785
43360000000,-1.190450499
43370000000,-1.188841049
43380000000,-1.187212999
43390000000,-1.185560705
43400000000,-1.183911499
43410000000,-1.182257208
43420000000,-1.180566741
43430000000,-1.178861983
43440000000,-1.177150369
43450000000,-1.175410585
43460000000,-1.173634248
43470000000,-1.171855373
43480000000,-1.170071337
43490000000,-1.168266556
43500000000,-1.166444508
43510000000,-1.164658103
43520000000,-1.162846709
43530000000,-1.161054866
43540000000,-1.159268526
43550000000,-1.157536572
43560000000,-1.15579577
43570000000,-1.154095327
43580000000,-1.152398274
43590000000,-1.150701192
43600000000,-1.148990316
43610000000,-1.147267589
43620000000,-1.145530018
43630000000,-1.143798268
43640000000,-1.142068706
43650000000,-1.140370683
43660000000,-1.13869498
43670000000,-1.137070718
43680000000,-1.135485301
43690000000,-1.133917638
43700000000,-1.132352947
43710000000,-1.130819608
43720000000,-1.129282408
43730000000,-1.127730021
43740000000,-1.126197769
43750000000,-1.124656377
43760000000,-1.123117888
43770000000,-1.121593862
43780000000,-1.120108637
43790000000,-1.118668895
43800000000,-1.117278064
43810000000,-1.115959502
43820000000,-1.114651784
43830000000,-1.113368869
43840000000,-1.112125538
43850000000,-1.110912398
43860000000,-1.109713723
43870000000,-1.108560926
43880000000,-1.107432655
43890000000,-1.106329875
43900000000,-1.105270429
43910000000,-1.104269851
43920000000,-1.1033112
43930000000,-1.102393096
43940000000,-1.101482685
43950000000,-1.100592215
43960000000,-1.099738617
43970000000,-1.098876329
43980000000,-1.098055596
43990000000,-1.097256841
44000000000,-1.096490824
44010000000,-1.095759528
44020000000,-1.095080174
44030000000,-1.094442109
44040000000,-1.093865587
44050000000,-1.093340012
44060000000,-1.092866788
44070000000,-1.092438631
44080000000,-1.09205677
44090000000,-1.091686054
44100000000,-1.09130322
44110000000,-1.090950007
44120000000,-1.090604597
44130000000,-1.090281602
44140000000,-1.089990365
44150000000,-1.089746416
44160000000,-1.089545221
44170000000,-1.089395711
44180000000,-1.089287654
44190000000,-1.089262021
44200000000,-1.08927587
44210000000,-1.089320348
44220000000,-1.089394578
44230000000,-1.089474147
44240000000,-1.089560379
44250000000,-1.089690617
44260000000,-1.089819275
44270000000,-1.089955096
44280000000,-1.090134377
44290000000,-1.090329869
44300000000,-1.090571879
44310000000,-1.090846906
44320000000,-1.091145809
44330000000,-1.091477917
44340000000,-1.091838422
44350000000,-1.092209642
44360000000,-1.092615299
44370000000,-1.09303965
44380000000,-1.093534242
44390000000,-1.09410172
44400000000,-1.094721753
44410000000,-1.0953846
44420000000,-1.096069825
44430000000,-1.096776084
44440000000,-1.097496648
44450000000,-1.098253439
44460000000,-1.099010597
44470000000,-1.099755164
44480000000,-1.100537038
44490000000,-1.101318142
44500000000,-1.102141215
44510000000,-1.103013849
44520000000,-1.103959355
44530000000,-1.1049611
44540000000,-1.106026179
44550000000,-1.10716379
44560000000,-1.108359162
44570000000,-1.109580998
44580000000,-1.110829395
44590000000,-1.112087551
44600000000,-1.113321479
44610000000,-1.11457372
44620000000,-1.115807174
44630000000,-1.117029747
44640000000,-1.118284865
44650000000,-1.119584073
44660000000,-1.120914324
44670000000,-1.122336097
44680000000,-1.123792514
44690000000,-1.125321028
44700000000,-1.126919839
44710000000,-1.128565857
44720000000,-1.13021754
44730000000,-1.131884752
44740000000,-1.133588523
44750000000,-1.13531608
44760000000,-1.13705586
44770000000,-1.138815271
44780000000,-1.140595895
44790000000,-1.142373363
44800000000,-1.144184052
44810000000,-1.145994022
44820000000,-1.147870378
44830000000,-1.149765994
44840000000,-1.151703949
44850000000,-1.153642569
44860000000,-1.155639235
44870000000,-1.157680036
44880000000,-1.159746397
44890000000,-1.161825301
44900000000,-1.163923933
44910000000,-1.166001635
44920000000,-1.16808862
44930000000,-1.17016076
44940000000,-1.172226624
44950000000,-1.174282944
44960000000,-1.176302195
44970000000,-1.178334375
44980000000,-1.180367731
44990000000,-1.182399886
45000000000,-1.184481774
45010000000,-1.18655725
45020000000,-1.188660812
45030000000,-1.190733178
45040000000,-1.192799361
45050000000,-1.194861777
45060000000,-1.196897455
45070000000,-1.198868395
45080000000,-1.200813554
45090000000,-1.202705611
45100000000,-1.204593203
45110000000,-1.20642834
45120000000,-1.208255533
45130000000,-1.210120782
45140000000,-1.211933179
45150000000,-1.2137427
45160000000,-1.215532719
45170000000,-1.217322377
45180000000,-1.219059153
45190000000,-1.220794538
45200000000,-1.22247041
45210000000,-1.224128682
45220000000,-1.225724866
45230000000,-1.227254798
45240000000,-1.22874215
45250000000,-1.230204919
45260000000,-1.231603024
45270000000,-1.232972592
45280000000,-1.234301226
45290000000,-1.235594449
45300000000,-1.236816185
45310000000,-1.237986753
45320000000,-1.239107741
45330000000,-1.240221739
45340000000,-1.241246628
45350000000,-1.242226075
45360000000,-1.243148166
45370000000,-1.244032493
45380000000,-1.244826121
45390000000,-1.245602012
45400000000,-1.246257151
45410000000,-1.246896813
45420000000,-1.247467507
45430000000,-1.247978092
45440000000,-1.248454109
45450000000,-1.248871688
45460000000,-1.249285387
45470000000,-1.249628133
45480000000,-1.249933498
45490000000,-1.250187536
45500000000,-1.250389317
45510000000,-1.250537843
45520000000,-1.250639604
45530000000,-1.250690224
45540000000,-1.250669556
45550000000,-1.250590159
45560000000,-1.250476002
45570000000,-1.250287994
45580000000,-1.250077501
45590000000,-1.249822637
45600000000,-1.249577454
45610000000,-1.249312376
45620000000,-1.249034294
45630000000,-1.248733491
45640000000,-1.248422431
45650000000,-1.248084427
45660000000,-1.247741529
45670000000,-1.24735414
45680000000,-1.246940692
45690000000,-1.246533404
45700000000,-1.246138303
45710000000,-1.245717964
45720000000,-1.245358306
45730000000,-1.245012136
45740000000,-1.244704107
45750000000,-1.24443117
45760000000,-1.244190286
45770000000,-1.243960497
45780000000,-1.243756459
45790000000,-1.243541869
45800000000,-1.243313543
45810000000,-1.243069626
45820000000,-1.242859917
45830000000,-1.242700974
45840000000,-1.24257013
45850000000,-1.242481657
45860000000,-1.242409079
45870000000,-1.242378912
45880000000,-1.242412446
45890000000,-1.242479175
45900000000,-1.242602424
45910000000,-1.242809823
45920000000,-1.243040304
45930000000,-1.243335103
45940000000,-1.243682158
45950000000,-1.244100808
45960000000,-1.244558789
45970000000,-1.245114335
45980000000,-1.245701212
45990000000,-1.246359401
46000000000,-1.247065603
46010000000,-1.247827825
46020000000,-1.24863364
46030000000,-1.249495887
46040000000,-1.250386679
46050000000,-1.251338491
46060000000,-1.252357651
46070000000,-1.253438843
46080000000,-1.25463328
46090000000,-1.255873182
46100000000,-1.257253374
46110000000,-1.258694907
46120000000,-1.260221302
46130000000,-1.261802798
46140000000,-1.263455185
46150000000,-1.265134839
46160000000,-1.26686675
46170000000,-1.268620105
46180000000,-1.270403296
46190000000,-1.272254777
46200000000,-1.274123914
46210000000,-1.276077004
46220000000,-1.278082542
46230000000,-1.280153419
46240000000,-1.282301443
46250000000,-1.284475838
46260000000,-1.286750932
46270000000,-1.289162737
46280000000,-1.291557729
46290000000,-1.294027616
46300000000,-1.296479289
46310000000,-1.298967736
46320000000,-1.301453849
46330000000,-1.30398513
46340000000,-1.306481598
46350000000,-1.309053587
46360000000,-1.311675616
46370000000,-1.3143154
46380000000,-1.317018733
46390000000,-1.319736777
46400000000,-1.322447598
46410000000,-1.325182614
46420000000,-1.327928981
46430000000,-1.330764368
46440000000,-1.333582452
46450000000,-1.336395609
46460000000,-1.339239655
46470000000,-1.342100617
46480000000,-1.344937524
46490000000,-1.347747975
46500000000,-1.350592207
46510000000,-1.35340972
46520000000,-1.356144234
46530000000,-1.358895199
46540000000,-1.361615474
46550000000,-1.364294383
46560000000,-1.366956183
46570000000,-1.369589414
46580000000,-1.372219943
46590000000,-1.374861153
46600000000,-1.377538721
46610000000,-1.380130918
46620000000,-1.382755993
46630000000,-1.385353922
46640000000,-1.387858105
46650000000,-1.390375223
46660000000,-1.392798178
46670000000,-1.39510532
46680000000,-1.397341795
46690000000,-1.399494087
46700000000,-1.401560079
46710000000,-1.403645095
46720000000,-1.405709857
46730000000,-1.407731635
46740000000,-1.409757033
46750000000,-1.411737002
46760000000,-1.413734716
46770000000,-1.415751059
46780000000,-1.417677313
46790000000,-1.419525498
46800000000,-1.421350437
46810000000,-1.423088946
46820000000,-1.4247413
46830000000,-1.426348178
46840000000,-1.427813619
46850000000,-1.42928219
46860000000,-1.430648861
46870000000,-1.431975191
46880000000,-1.433257159
46890000000,-1.43452364
46900000000,-1.435734078
46910000000,-1.436943802
46920000000,-1.438107729
46930000000,-1.43923131
46940000000,-1.440261301
46950000000,-1.441238958
46960000000,-1.442171915
46970000000,-1.443088261
46980000000,-1.443943433
46990000000,-1.444815399
47000000000,-1.445576384
47010000000,-1.44628782
47020000000,-1.446936913
47030000000,-1.447531549
47040000000,-1.448054709
47050000000,-1.448504708
47060000000,-1.448921421
47070000000,-1.449323942
47080000000,-1.449696273
47090000000,-1.450089902
47100000000,-1.450413011
47110000000,-1.450740992
47120000000,-1.45102842
47130000000,-1.45129971
47140000000,-1.451576667
47150000000,-1.451735415
47160000000,-1.451815746
47170000000,-1.451818607
47180000000,-1.451804506
47190000000,-1.451661853
47200000000,-1.451535713
47210000000,-1.451340846
47220000000,-1.451162598
47230000000,-1.450976099
47240000000,-1.450777874
47250000000,-1.450597065
47260000000,-1.450382102
47270000000,-1.45018133
47280000000,-1.449953919
47290000000,-1.449658351
47300000000,-1.449347252
47310000000,-1.44895438
47320000000,-1.448505861
47330000000,-1.447996327
47340000000,-1.447442864
47350000000,-1.446797444
47360000000,-1.446184666
47370000000,-1.445549462
47380000000,-1.444938515
47390000000,-1.444329128
47400000000,-1.443723939
47410000000,-1.443111172
47420000000,-1.44248941
47430000000,-1.441839564
47440000000,-1.441156535
47450000000,-1.440479302
47460000000,-1.439715354
47470000000,-1.438918241
47480000000,-1.438106352
47490000000,-1.437250708
47500000000,-1.436356428
47510000000,-1.435435824
47520000000,-1.434563415
47530000000,-1.433629013
47540000000,-1.432692636
47550000000,-1.431741528
47560000000,-1.430753648
47570000000,-1.42977531
47580000000,-1.428798925
47590000000,-1.42785847
47600000000,-1.426823446
47610000000,-1.42573156
47620000000,-1.424777388
47630000000,-1.423751504
47640000000,-1.422595173
47650000000,-1.42141449
47660000000,-1.420207042
47670000000,-1.418980892
47680000000,-1.417774754
47690000000,-1.41659681
47700000000,-1.415363551
47710000000,-1.414178874
47720000000,-1.412990365
47730000000,-1.411835033
47740000000,-1.410625503
47750000000,-1.409420979
47760000000,-1.408196139
47770000000,-1.406955275
47780000000,-1.405676026
47790000000,-1.404419051
47800000000,-1.403123979
47810000000,-1.401862939
47820000000,-1.400576887
47830000000,-1.39936078
47840000000,-1.398159086
47850000000,-1.397006132
47860000000,-1.395840201
47870000000,-1.394722129
47880000000,-1.39363787
47890000000,-1.392560413
47900000000,-1.391474037
47910000000,-1.390423412
47920000000,-1.389397311
47930000000,-1.388347493
47940000000,-1.38731774
47950000000,-1.386279664
47960000000,-1.385301456
47970000000,-1.384313112
47980000000,-1.383375035
47990000000,-1.382462334
48000000000,-1.381631361
48010000000,-1.380889313
48020000000,-1.380148529
48030000000,-1.379401864
48040000000,-1.378722997
48050000000,-1.378104735
48060000000,-1.377511272
48070000000,-1.376976542
48080000000,-1.376434953
48090000000,-1.376017506
48100000000,-1.375532351
48110000000,-1.375083849
48120000000,-1.374715933
48130000000,-1.374350556
48140000000,-1.374055426
48150000000,-1.373822802
48160000000,-1.373639141
48170000000,-1.373541957
48180000000,-1.373478072
48190000000,-1.373436571
48200000000,-1.373506959
48210000000,-1.373589461
48220000000,-1.373723616
48230000000,-1.373901835
48240000000,-1.37411802
48250000000,-1.374452754
48260000000,-1.374751954
48270000000,-1.374999806
48280000000,-1.375321021
48290000000,-1.375647383
48300000000,-1.376023231
48310000000,-1.376511559
48320000000,-1.377038706
48330000000,-1.377558573
48340000000,-1.378231722
48350000000,-1.378848732
48360000000,-1.379442818
48370000000,-1.38017637
48380000000,-1.380799717
48390000000,-1.381502881
48400000000,-1.382163008
48410000000,-1.382823405
48420000000,-1.383496499
48430000000,-1.384178262
48440000000,-1.384913642
48450000000,-1.385637852
48460000000,-1.386382821
48470000000,-1.38718639
48480000000,-1.387980146
48490000000,-1.388749351
48500000000,-1.389508761
48510000000,-1.390222772
48520000000,-1.391045723
48530000000,-1.391813164
48540000000,-1.392453398
48550000000,-1.393137497
48560000000,-1.393782395
48570000000,-1.394375548
48580000000,-1.394983066
48590000000,-1.395556725
48600000000,-1.396065743
48610000000,-1.396621268
48620000000,-1.397080931
48630000000,-1.397542355
48640000000,-1.398021799
48650000000,-1.398336281
48660000000,-1.398616678
48670000000,-1.398850933
48680000000,-1.399037283
48690000000,-1.399185711
48700000000,-1.399323571
48710000000,-1.399341434
48720000000,-1.399265138
48730000000,-1.399189844
48740000000,-1.399019596
48750000000,-1.398799439
48760000000,-1.398529778
48770000000,-1.398088794
48780000000,-1.397627194
48790000000,-1.397131456
48800000000,-1.396625379
48810000000,-1.395964284
48820000000,-1.395310813
48830000000,-1.394612846
48840000000,-1.393896838
48850000000,-1.392969459
48860000000,-1.392101077
48870000000,-1.391145771
48880000000,-1.390110988
48890000000,-1.389036449
48900000000,-1.387876205
48910000000,-1.38667206
48920000000,-1.385372618
48930000000,-1.383925097
48940000000,-1.382540618
48950000000,-1.381095484
48960000000,-1.379548311
48970000000,-1.377953011
48980000000,-1.376328086
48990000000,-1.37453501
49000000000,-1.372695581
49010000000,-1.370853792
49020000000,-1.368947007
49030000000,-1.367041195
49040000000,-1.365066901
49050000000,-1.363159913
49060000000,-1.361205763
49070000000,-1.359204505
49080000000,-1.357199697
49090000000,-1.355203608
49100000000,-1.353135994
49110000000,-1.350999683
49120000000,-1.34880059
49130000000,-1.34659259
49140000000,-1.344466528
49150000000,-1.342410367
49160000000,-1.340410464
49170000000,-1.3384466
49180000000,-1.336408536
49190000000,-1.334413708
49200000000,-1.332355275
49210000000,-1.330326765
49220000000,-1.328319661
49230000000,-1.326334784
49240000000,-1.324400265
49250000000,-1.322469919
49260000000,-1.320659394
49270000000,-1.318804085
49280000000,-1.316988214
49290000000,-1.315287826
49300000000,-1.313653271
49310000000,-1.312123452
49320000000,-1.310714896
49330000000,-1.309308563
49340000000,-1.30799865
49350000000,-1.306752688
49360000000,-1.305604586
49370000000,-1.304513038
49380000000,-1.30351276
49390000000,-1.302525022
49400000000,-1.301686514
49410000000,-1.300854902
49420000000,-1.300118181
49430000000,-1.299514082
49440000000,-1.298908722
49450000000,-1.298462526
49460000000,-1.298291759
49470000000,-1.29809063
49480000000,-1.298026902
49490000000,-1.298097306
49500000000,-1.29827542
49510000000,-1.298498195
49520000000,-1.298878341
49530000000,-1.299515459
49540000000,-1.300182228
49550000000,-1.301032356
49560000000,-1.301935006
49570000000,-1.303063351
49580000000,-1.304192743
49590000000,-1.305449487
49600000000,-1.306854668
49610000000,-1.308370147
49620000000,-1.309888466
49630000000,-1.311625506
49640000000,-1.313639865
49650000000,-1.315638968
49660000000,-1.317921608
49670000000,-1.320282774
49680000000,-1.322693244
49690000000,-1.325214773
49700000000,-1.327999851
49710000000,-1.330757864
49720000000,-1.333570771
49730000000,-1.33652465
49740000000,-1.339666277
49750000000,-1.342961314
49760000000,-1.346353854
49770000000,-1.349880057
49780000000,-1.353480781
49790000000,-1.357242813
49800000000,-1.361036959
49810000000,-1.364963103
49820000000,-1.368943925
49830000000,-1.372941245
49840000000,-1.377038172
49850000000,-1.381208945
49860000000,-1.385505719
49870000000,-1.389924547
49880000000,-1.394311893
49890000000,-1.398861156
49900000000,-1.403528808
49910000000,-1.408212857
49920000000,-1.412910165
49930000000,-1.417705905
49940000000,-1.422542428
49950000000,-1.427484925
49960000000,-1.43235961
49970000000,-1.437331533
49980000000,-1.442385519
49990000000,-1.447516483
50000000000,-1.452657105
50010000000,-1.457845895
50020000000,-1.463088229
50030000000,-1.46837748
50040000000,-1.473589087
50050000000,-1.478807676
50060000000,-1.484066138
50070000000,-1.489183334
50080000000,-1.49447816
50090000000,-1.49966428
50100000000,-1.504924232
50110000000,-1.51032325
50120000000,-1.515600355
50130000000,-1.520948991
50140000000,-1.526265483
50150000000,-1.531454395
50160000000,-1.536601896
50170000000,-1.541892768
50180000000,-1.547077822
50190000000,-1.552192989
50200000000,-1.557169909
50210000000,-1.562211184
50220000000,-1.5672177
50230000000,-1.572151376
50240000000,-1.577046339
50250000000,-1.581868454
50260000000,-1.586646787
50270000000,-1.591448218
50280000000,-1.596229047
50290000000,-1.601012689
50300000000,-1.605597125
50310000000,-1.61009272
50320000000,-1.614568698
50330000000,-1.618983631
50340000000,-1.623182621
50350000000,-1.627473084
50360000000,-1.631591943
50370000000,-1.635566776
50380000000,-1.639504732
50390000000,-1.643336545
50400000000,-1.647127628
50410000000,-1.650792978
50420000000,-1.654409882
50430000000,-1.65791027
50440000000,-1.661345627
50450000000,-1.664766772
50460000000,-1.66807642
50470000000,-1.67124906
50480000000,-1.674391474
50490000000,-1.677414176
50500000000,-1.680340849
50510000000,-1.683245678
50520000000,-1.685931191
50530000000,-1.688440949
50540000000,-1.69098663
50550000000,-1.693357576
50560000000,-1.695655013
50570000000,-1.697920644
50580000000,-1.700044396
50590000000,-1.702154037
50600000000,-1.704155921
50610000000,-1.7059553
50620000000,-1.707756766
50630000000,-1.709390369
50640000000,-1.710990254
50650000000,-1.71251009
50660000000,-1.713950769
50670000000,-1.71527505
50680000000,-1.716465732
50690000000,-1.717578276
50700000000,-1.718598316
50710000000,-1.719590559
50720000000,-1.720532021
50730000000,-1.721353487
50740000000,-1.722188726
50750000000,-1.722841831
50760000000,-1.723446847
50770000000,-1.724089426
50780000000,-1.724584098
50790000000,-1.725106005
50800000000,-1.725510245
50810000000,-1.725903137
50820000000,-1.726211735
50830000000,-1.726401577
50840000000,-1.726558968
50850000000,-1.726639425
50860000000,-1.726769275
50870000000,-1.72676932
50880000000,-1.726851359
50890000000,-1.726862139
50900000000,-1.726911884
50910000000,-1.72683679
50920000000,-1.726758654
50930000000,-1.726702764
50940000000,-1.726604634
50950000000,-1.726571807
50960000000,-1.726517263
50970000000,-1.726446589
50980000000,-1.726352422
50990000000,-1.726333187
51000000000,-1.726270892
51010000000,-1.726246183
51020000000,-1.726294862
51030000000,-1.726276073
51040000000,-1.726285198
51050000000,-1.726180202
51060000000,-1.726274778
51070000000,-1.726398628
51080000000,-1.726523059
51090000000,-1.72656351
51100000000,-1.72681027
51110000000,-1.727142555
51120000000,-1.727617564
51130000000,-1.72804996
51140000000,-1.728434682
51150000000,-1.728891916
51160000000,-1.729506885
51170000000,-1.730191549
51180000000,-1.730973261
51190000000,-1.731892772
51200000000,-1.732880164
51210000000,-1.73384551
51220000000,-1.734982198
51230000000,-1.736189445
51240000000,-1.737479318
51250000000,-1.73884558
51260000000,-1.74014056
51270000000,-1.741627271
51280000000,-1.743328878
51290000000,-1.745005096
51300000000,-1.746798757
51310000000,-1.748747052
51320000000,-1.750695702
51330000000,-1.752874003
51340000000,-1.755156455
51350000000,-1.757604185
51360000000,-1.760057702
51370000000,-1.762641527
51380000000,-1.765457163
51390000000,-1.768284038
51400000000,-1.771249206
51410000000,-1.774337043
51420000000,-1.777691721
51430000000,-1.78092485
51440000000,-1.784252519
51450000000,-1.787815083
51460000000,-1.791348801
51470000000,-1.795155061
51480000000,-1.798907217
51490000000,-1.802865536
51500000000,-1.807118779
51510000000,-1.811424476
51520000000,-1.815629099
51530000000,-1.819747773
51540000000,-1.824218731
51550000000,-1.828440879
51560000000,-1.832885931
51570000000,-1.837344451
51580000000,-1.842166392
51590000000,-1.846969974
51600000000,-1.851840614
51610000000,-1.856580686
51620000000,-1.861524909
51630000000,-1.866546094
51640000000,-1.871654458
51650000000,-1.876950124
51660000000,-1.882125211
51670000000,-1.887323396
51680000000,-1.892783675
51690000000,-1.898121486
51700000000,-1.903596139
51710000000,-1.90893702
51720000000,-1.914377313
51730000000,-1.919801476
51740000000,-1.925155434
51750000000,-1.930437491
51760000000,-1.935800374
51770000000,-1.941215698
51780000000,-1.946503195
51790000000,-1.951903771
51800000000,-1.957381714
51810000000,-1.962609675
51820000000,-1.967891768
51830000000,-1.973192283
51840000000,-1.978297139
51850000000,-1.983252735
51860000000,-1.988256386
51870000000,-1.993276518
51880000000,-1.998114447
51890000000,-2.002960387
51900000000,-2.007734329
51910000000,-2.012237484
51920000000,-2.016741044
51930000000,-2.021267894
51940000000,-2.025578099
51950000000,-2.029826577
51960000000,-2.034032376
51970000000,-2.038248109
51980000000,-2.042134486
51990000000,-2.045887896
52000000000,-2.049477245
52010000000,-2.052918204
52020000000,-2.056282562
52030000000,-2.059568762
52040000000,-2.062627125
52050000000,-2.065441723
52060000000,-2.068283963
52070000000,-2.071094972
52080000000,-2.073611726
52090000000,-2.076053435
52100000000,-2.078133765
52110000000,-2.080176684
52120000000,-2.08193612
52130000000,-2.083618965
52140000000,-2.084959704
52150000000,-2.086164671
52160000000,-2.087482791
52170000000,-2.088142183
52180000000,-2.088891912
52190000000,-2.089670246
52200000000,-2.089984835
52210000000,-2.090330084
52220000000,-2.090568445
52230000000,-2.090452194
52240000000,-2.089948447
52250000000,-2.089315757
52260000000,-2.088672349
52270000000,-2.087980449
52280000000,-2.086881361
52290000000,-2.085709727
52300000000,-2.084377708
52310000000,-2.082781921
52320000000,-2.081217336
52330000000,-2.079396427
52340000000,-2.077711455
52350000000,-2.075749213
52360000000,-2.073649716
52370000000,-2.071543722
52380000000,-2.069140927
52390000000,-2.066317446
52400000000,-2.063457237
52410000000,-2.060484518
52420000000,-2.057230897
52430000000,-2.054419357
52440000000,-2.051377053
52450000000,-2.047937894
52460000000,-2.044558762
52470000000,-2.040882738
52480000000,-2.037037427
52490000000,-2.033160481
52500000000,-2.028958513
52510000000,-2.024649002
52520000000,-2.020310567
52530000000,-2.015901784
52540000000,-2.011463444
52550000000,-2.007031066
52560000000,-2.002489976
52570000000,-1.997840902
52580000000,-1.993039789
52590000000,-1.988427205
52600000000,-1.983605266
52610000000,-1.978932874
52620000000,-1.974291981
52630000000,-1.969583186
52640000000,-1.964630977
52650000000,-1.959817474
52660000000,-1.954914025
52670000000,-1.950180958
52680000000,-1.945460869
52690000000,-1.941007546
52700000000,-1.936583261
52710000000,-1.931696901
52720000000,-1.927070794
52730000000,-1.922330575
52740000000,-1.917555806
52750000000,-1.912804581
52760000000,-1.908437808
52770000000,-1.904100145
52780000000,-1.899229198
52790000000,-1.894818116
52800000000,-1.890269881
52810000000,-1.885897783
52820000000,-1.881698378
52830000000,-1.877642678
52840000000,-1.873515222
52850000000,-1.869676114
52860000000,-1.865724135
52870000000,-1.862063284
52880000000,-1.858479126
52890000000,-1.854758505
52900000000,-1.85101933
52910000000,-1.848031233
52920000000,-1.844814079
52930000000,-1.841415161
52940000000,-1.838267514
52950000000,-1.835551183
52960000000,-1.832513872
52970000000,-1.829771801
52980000000,-1.827265712
52990000000,-1.824665216
53000000000,-1.822390363
53010000000,-1.820262505
53020000000,-1.817749381
53030000000,-1.815610661
53040000000,-1.813642403
53050000000,-1.811522037
53060000000,-1.80954231
53070000000,-1.807895686
53080000000,-1.806229702
53090000000,-1.804747238
53100000000,-1.803683606
53110000000,-1.802634639
53120000000,-1.801622602
53130000000,-1.800676717
53140000000,-1.799827396
53150000000,-1.799284394
53160000000,-1.798723284
53170000000,-1.797992508
53180000000,-1.797542733
53190000000,-1.796876415
53200000000,-1.796523084
53210000000,-1.796348865
53220000000,-1.795940472
53230000000,-1.7956915
53240000000,-1.79580471
53250000000,-1.795790685
53260000000,-1.795882812
53270000000,-1.796053111
53280000000,-1.796125
53290000000,-1.796726906
53300000000,-1.79716939
53310000000,-1.797373799
53320000000,-1.798366684
53330000000,-1.798530837
53340000000,-1.798800888
53350000000,-1.799235967
53360000000,-1.80010925
53370000000,-1.800561849
53380000000,-1.800943316
53390000000,-1.801396707
53400000000,-1.801721116
53410000000,-1.802186467
53420000000,-1.802543083
53430000000,-1.803093622
53440000000,-1.803774281
53450000000,-1.804252343
53460000000,-1.804548837
53470000000,-1.804948569
53480000000,-1.805431607
53490000000,-1.806205657
53500000000,-1.806426191
53510000000,-1.80674443
53520000000,-1.806954247
53530000000,-1.807491186
53540000000,-1.807826998
53550000000,-1.808356937
53560000000,-1.808607107
53570000000,-1.808677115
53580000000,-1.80857664
53590000000,-1.809000274
53600000000,-1.809473769
53610000000,-1.81001801
53620000000,-1.810506766
53630000000,-1.810597917
53640000000,-1.810522515
53650000000,-1.809857454
53660000000,-1.809564225
53670000000,-1.809383524
53680000000,-1.808883837
53690000000,-1.808389609
53700000000,-1.807508879
53710000000,-1.807115399
53720000000,-1.807045286
53730000000,-1.806684336
53740000000,-1.806293288
53750000000,-1.805651861
53760000000,-1.805115829
53770000000,-1.80426356
53780000000,-1.803501082
53790000000,-1.802465616
53800000000,-1.801345825
53810000000,-1.800326641
53820000000,-1.799273587
53830000000,-1.79824172
53840000000,-1.79746965
53850000000,-1.796426484
53860000000,-1.794892862
53870000000,-1.793498576
53880000000,-1.791904515
53890000000,-1.790345414
53900000000,-1.788551572
53910000000,-1.78743518
53920000000,-1.786317988
53930000000,-1.784886652
53940000000,-1.783279218
53950000000,-1.78155569
53960000000,-1.779853259
53970000000,-1.777571586
53980000000,-1.775968943
53990000000,-1.773962435
54000000000,-1.771829112
54010000000,-1.769831398
54020000000,-1.7674404
54030000000,-1.764901885
54040000000,-1.762707332
54050000000,-1.760551738
54060000000,-1.758494998
54070000000,-1.755784085
54080000000,-1.753330946
54090000000,-1.750604089
54100000000,-1.748399811
54110000000,-1.745617547
54120000000,-1.743195738
54130000000,-1.74056474
54140000000,-1.73809317
54150000000,-1.735150815
54160000000,-1.731828188
54170000000,-1.729202032
54180000000,-1.726345484
54190000000,-1.72343399
54200000000,-1.720993589
54210000000,-1.718167239
54220000000,-1.715274571
54230000000,-1.712480961
54240000000,-1.709668596
54250000000,-1.707194125
54260000000,-1.7044811
54270000000,-1.701377529
54280000000,-1.698683529
54290000000,-1.696009537
54300000000,-1.693680913
54310000000,-1.690755807
54320000000,-1.687642236
54330000000,-1.684779308
54340000000,-1.681763006
54350000000,-1.678773019
54360000000,-1.675927523
54370000000,-1.673206438
54380000000,-1.670743109
54390000000,-1.667992358
54400000000,-1.665144552
54410000000,-1.66287415
54420000000,-1.661068411
54430000000,-1.658426596
54440000000,-1.655547608
54450000000,-1.653649988
54460000000,-1.651394336
54470000000,-1.649277785
54480000000,-1.647786192
54490000000,-1.645916445
54500000000,-1.644447283
54510000000,-1.643125969
54520000000,-1.641717021
54530000000,-1.640265067
54540000000,-1.638847436
54550000000,-1.637673433
54560000000,-1.636681483
54570000000,-1.63562791
54580000000,-1.634481757
54590000000,-1.633382837
54600000000,-1.632835849
54610000000,-1.632130031
54620000000,-1.631452442
54630000000,-1.631014494
54640000000,-1.63056536
54650000000,-1.630153465
54660000000,-1.630097551
54670000000,-1.630296559
54680000000,-1.629994632
54690000000,-1.629932878
54700000000,-1.629916955
54710000000,-1.630132257
54720000000,-1.630336585
54730000000,-1.631132132
54740000000,-1.631643183
54750000000,-1.632421813
54760000000,-1.63324398
54770000000,-1.634162486
54780000000,-1.635867114
54790000000,-1.637402595
54800000000,-1.639275232
54810000000,-1.641605624
54820000000,-1.643973814
54830000000,-1.645954161
54840000000,-1.648044158
54850000000,-1.650208771
54860000000,-1.65237677
54870000000,-1.654950302
54880000000,-1.657566972
54890000000,-1.660725929
54900000000,-1.664112046
54910000000,-1.667162427
54920000000,-1.670653293
54930000000,-1.674669476
54940000000,-1.678242354
54950000000,-1.68217062
54960000000,-1.686201646
54970000000,-1.690244563
54980000000,-1.69457047
54990000000,-1.69839702
55000000000,-1.702677187
55010000000,-1.707197823
55020000000,-1.711998569
55030000000,-1.716903051
55040000000,-1.72165613
55050000000,-1.726890556
55060000000,-1.732311202
55070000000,-1.737467232
55080000000,-1.742513606
55090000000,-1.747380424
55100000000,-1.752448137
55110000000,-1.757643824
55120000000,-1.763248046
55130000000,-1.768813111
55140000000,-1.774635001
55150000000,-1.78025217
55160000000,-1.786031665
55170000000,-1.791768157
55180000000,-1.79783962
55190000000,-1.804204962
55200000000,-1.810143514
55210000000,-1.815980722
55220000000,-1.82217231
55230000000,-1.828468616
55240000000,-1.834196003
55250000000,-1.840691694
55260000000,-1.846866057
55270000000,-1.852881681
55280000000,-1.859017853
55290000000,-1.864905757
55300000000,-1.870982973
55310000000,-1.87729915
55320000000,-1.882902758
55330000000,-1.889368626
55340000000,-1.895675672
55350000000,-1.902042692
55360000000,-1.907928645
55370000000,-1.914115003
55380000000,-1.919865307
55390000000,-1.925825845
55400000000,-1.931843759
55410000000,-1.937521855
55420000000,-1.943478637
55430000000,-1.94920528
55440000000,-1.954823041
55450000000,-1.960794684
55460000000,-1.966714438
55470000000,-1.972085723
55480000000,-1.977247995
55490000000,-1.982387432
55500000000,-1.98773869
55510000000,-1.992971607
55520000000,-1.998173683
55530000000,-2.00308236
55540000000,-2.00798268
55550000000,-2.012968775
55560000000,-2.017817756
55570000000,-2.022852632
55580000000,-2.027588678
55590000000,-2.031644558
55600000000,-2.035482988
55610000000,-2.039421273
55620000000,-2.043212715
55630000000,-2.047387805
55640000000,-2.051373851
55650000000,-2.055542768
55660000000,-2.059258914
55670000000,-2.062661572
55680000000,-2.066011177
55690000000,-2.069505136
55700000000,-2.073261254
55710000000,-2.076571067
55720000000,-2.079370956
55730000000,-2.082396446
55740000000,-2.085243757
55750000000,-2.088051958
55760000000,-2.090615376
55770000000,-2.093134824
55780000000,-2.096030754
55790000000,-2.099122871
55800000000,-2.102296571
55810000000,-2.104800282
55820000000,-2.107158159
55830000000,-2.109526993
55840000000,-2.11149749
55850000000,-2.113881829
55860000000,-2.116239876
55870000000,-2.118433108
55880000000,-2.120697306
55890000000,-2.12271872
55900000000,-2.124977922
55910000000,-2.126947539
55920000000,-2.128757783
55930000000,-2.130297642
55940000000,-2.132716866
55950000000,-2.134640752
55960000000,-2.136360577
55970000000,-2.138577818
55980000000,-2.140370535
55990000000,-2.142331057
56000000000,-2.144472193
56010000000,-2.146574576
56020000000,-2.149317139
56030000000,-2.152049396
56040000000,-2.154602741
56050000000,-2.157331852
56060000000,-2.15952576
56070000000,-2.162624568
56080000000,-2.165110973
56090000000,-2.168191628
56100000000,-2.170521745
56110000000,-2.173612212
56120000000,-2.176072752
56130000000,-2.178922855
56140000000,-2.182158062
56150000000,-2.18565451
56160000000,-2.189269636
56170000000,-2.19253365
56180000000,-2.19579926
56190000000,-2.199288623
56200000000,-2.202536543
56210000000,-2.205614867
56220000000,-2.209173514
56230000000,-2.212737706
56240000000,-2.216355608
56250000000,-2.219653968
56260000000,-2.223365608
56270000000,-2.227334986
56280000000,-2.231399635
56290000000,-2.235394427
56300000000,-2.238911437
56310000000,-2.243574954
56320000000,-2.248560049
56330000000,-2.252741885
56340000000,-2.257304634
56350000000,-2.262303997
56360000000,-2.266844587
56370000000,-2.271316049
56380000000,-2.276470864
56390000000,-2.281848345
56400000000,-2.286963945
56410000000,-2.291792554
56420000000,-2.296302622
56430000000,-2.301604973
56440000000,-2.307066957
56450000000,-2.312463089
56460000000,-2.317685273
56470000000,-2.322878475
56480000000,-2.328007314
56490000000,-2.333581491
56500000000,-2.339065461
56510000000,-2.344114659
56520000000,-2.349577796
56530000000,-2.355110232
56540000000,-2.36083991
56550000000,-2.366303497
56560000000,-2.371884065
56570000000,-2.377877488
56580000000,-2.384012899
56590000000,-2.389653138
56600000000,-2.395379157
56610000000,-2.401541607
56620000000,-2.407166067
56630000000,-2.413442377
56640000000,-2.419342225
56650000000,-2.425141671
56660000000,-2.431201223
56670000000,-2.436838211
56680000000,-2.443239426
56690000000,-2.449188147
56700000000,-2.454990887
56710000000,-2.461413325
56720000000,-2.467577394
56730000000,-2.473443139
56740000000,-2.479718499
56750000000,-2.486366632
56760000000,-2.49261271
56770000000,-2.498719148
56780000000,-2.504897114
56790000000,-2.510563867
56800000000,-2.516497964
56810000000,-2.522113747
56820000000,-2.527837741
56830000000,-2.53411498
56840000000,-2.540442901
56850000000,-2.546472304
56860000000,-2.552867674
56870000000,-2.558323397
56880000000,-2.564534132
56890000000,-2.570647836
56900000000,-2.576421479
56910000000,-2.582164911
56920000000,-2.588507793
56930000000,-2.594202122
56940000000,-2.600692855
56950000000,-2.606965076
56960000000,-2.613353902
56970000000,-2.619303072
56980000000,-2.625365819
56990000000,-2.63227923
57000000000,-2.639183378
57010000000,-2.645149674
57020000000,-2.651956076
57030000000,-2.658720799
57040000000,-2.665697132
57050000000,-2.67241351
57060000000,-2.678640197
57070000000,-2.685322483
57080000000,-2.692362292
57090000000,-2.6996098
57100000000,-2.706406271
57110000000,-2.71370889
57120000000,-2.72040099
57130000000,-2.727722594
57140000000,-2.735153555
57150000000,-2.741959798
57160000000,-2.748972355
57170000000,-2.755955529
57180000000,-2.763105295
57190000000,-2.770769928
57200000000,-2.778128621
57210000000,-2.785845892
57220000000,-2.793817161
57230000000,-2.801584708
57240000000,-2.809976288
57250000000,-2.81763255
57260000000,-2.826013812
57270000000,-2.834358274
57280000000,-2.843273705
57290000000,-2.85166292
57300000000,-2.86034565
57310000000,-2.86867412
57320000000,-2.877249629
57330000000,-2.88583863
57340000000,-2.894671924
57350000000,-2.903766938
57360000000,-2.912927092
57370000000,-2.921706265
57380000000,-2.930992251
57390000000,-2.940704501
57400000000,-2.950282562
57410000000,-2.959779831
57420000000,-2.969583803
57430000000,-2.97941977
57440000000,-2.989252449
57450000000,-2.998691004
57460000000,-3.00813772
57470000000,-3.018526226
57480000000,-3.029232042
57490000000,-3.039906193
57500000000,-3.050368604
57510000000,-3.060769438
57520000000,-3.071392553
57530000000,-3.08164216
57540000000,-3.092134553
57550000000,-3.102146282
57560000000,-3.112772764
57570000000,-3.123289154
57580000000,-3.133860776
57590000000,-3.144255995
57600000000,-3.154808467
57610000000,-3.165189288
57620000000,-3.175104206
57630000000,-3.185396038
57640000000,-3.19606375
57650000000,-3.206384986
57660000000,-3.217670417
57670000000,-3.228549961
57680000000,-3.2394945
57690000000,-3.249780945
57700000000,-3.260021779
57710000000,-3.270331261
57720000000,-3.280188886
57730000000,-3.29018098
57740000000,-3.300551333
57750000000,-3.310456437
57760000000,-3.320394498
57770000000,-3.330702042
57780000000,-3.34027312
57790000000,-3.349498811
57800000000,-3.358934237
57810000000,-3.368452878
57820000000,-3.378005092
57830000000,-3.387959106
57840000000,-3.397103189
57850000000,-3.407019222
57860000000,-3.417172806
57870000000,-3.426571524
57880000000,-3.435615859
57890000000,-3.44485282
57900000000,-3.454065215
57910000000,-3.462506913
57920000000,-3.471229406
57930000000,-3.479871613
57940000000,-3.488329512
57950000000,-3.496295004
57960000000,-3.504936777
57970000000,-3.512663787
57980000000,-3.520780269
57990000000,-3.529100045
58000000000,-3.537428911
58010000000,-3.54454158
58020000000,-3.551791001
58030000000,-3.558784118
58040000000,-3.566220631
58050000000,-3.573282667
58060000000,-3.580464752
58070000000,-3.58761302
58080000000,-3.594661463
58090000000,-3.601040945
58100000000,-3.607823968
58110000000,-3.614296108
58120000000,-3.621526049
58130000000,-3.627779034
58140000000,-3.634112161
58150000000,-3.640062092
58160000000,-3.64598533
58170000000,-3.651774438
58180000000,-3.657503053
58190000000,-3.662967471
58200000000,-3.668695295
58210000000,-3.674103948
58220000000,-3.679510892
58230000000,-3.684910218
58240000000,-3.690030336
58250000000,-3.694919073
58260000000,-3.699531628
58270000000,-3.704573437
58280000000,-3.709275703
58290000000,-3.713090456
58300000000,-3.717573844
58310000000,-3.721549884
58320000000,-3.725076154
58330000000,-3.728924273
58340000000,-3.73296538
58350000000,-3.736524472
58360000000,-3.740331346
58370000000,-3.744001596
58380000000,-3.747113652
58390000000,-3.750493495
58400000000,-3.753592644
58410000000,-3.757310667
58420000000,-3.760482007
58430000000,-3.763581485
58440000000,-3.766633432
58450000000,-3.769393511
58460000000,-3.772159147
58470000000,-3.77560191
58480000000,-3.778428842
58490000000,-3.780912494
58500000000,-3.783443118
58510000000,-3.786059136
58520000000,-3.788426842
58530000000,-3.790727187
58540000000,-3.792803776
58550000000,-3.795290237
58560000000,-3.797604735
58570000000,-3.799627267
58580000000,-3.801896539
58590000000,-3.804553365
58600000000,-3.806695981
58610000000,-3.808242307
58620000000,-3.810713206
58630000000,-3.812710175
58640000000,-3.815204523
58650000000,-3.817573652
58660000000,-3.819252356
58670000000,-3.821519539
58680000000,-3.823484052
58690000000,-3.825848983
58700000000,-3.827838687
58710000000,-3.830263143
58720000000,-3.83238055
58730000000,-3.834428548
58740000000,-3.836007668
58750000000,-3.837559873
58760000000,-3.839124885
58770000000,-3.84129523
58780000000,-3.843619623
58790000000,-3.846013219
58800000000,-3.847816412
58810000000,-3.849784742
58820000000,-3.852202761
58830000000,-3.854386395
58840000000,-3.856961478
58850000000,-3.859036065
58860000000,-3.860741793
58870000000,-3.863450624
58880000000,-3.865334485
58890000000,-3.866801967
58900000000,-3.869034
58910000000,-3.870843311
58920000000,-3.872334741
58930000000,-3.874611602
58940000000,-3.876852247
58950000000,-3.878240401
58960000000,-3.880920126
58970000000,-3.882975263
58980000000,-3.88467222
58990000000,-3.886250892
59000000000,-3.887914538
59010000000,-3.889925695
59020000000,-3.890918095
59030000000,-3.892159198
59040000000,-3.893847079
59050000000,-3.895340554
59060000000,-3.897478801
59070000000,-3.898661313
59080000000,-3.900366633
59090000000,-3.901693398
59100000000,-3.903044981
59110000000,-3.903911037
59120000000,-3.905544473
59130000000,-3.906733774
59140000000,-3.907905924
59150000000,-3.909701782
59160000000,-3.911160069
59170000000,-3.912747879
59180000000,-3.913937583
59190000000,-3.914248758
59200000000,-3.915492391
59210000000,-3.916759486
59220000000,-3.917804448
59230000000,-3.918290948
59240000000,-3.919512826
59250000000,-3.920252337
59260000000,-3.920454382
59270000000,-3.921433487
59280000000,-3.921333748
59290000000,-3.921700226
59300000000,-3.922491086
59310000000,-3.922867532
59320000000,-3.923146268
59330000000,-3.923408629
59340000000,-3.92364316
59350000000,-3.923295332
59360000000,-3.922589584
59370000000,-3.922583035
59380000000,-3.922591586
59390000000,-3.92164237
59400000000,-3.920810618
59410000000,-3.920843169
59420000000,-3.9203847
59430000000,-3.919657723
59440000000,-3.919176305
59450000000,-3.91888241
59460000000,-3.918512979
59470000000,-3.917657174
59480000000,-3.916872876
59490000000,-3.915762028
59500000000,-3.914732064
59510000000,-3.913929732
59520000000,-3.912726769
59530000000,-3.912420657
59540000000,-3.91126431
59550000000,-3.910475954
59560000000,-3.909567578
59570000000,-3.908325977
59580000000,-3.907457006
59590000000,-3.90698921
59600000000,-3.906242665
59610000000,-3.905777428
59620000000,-3.905158612
59630000000,-3.904733885
59640000000,-3.903671444
59650000000,-3.903127034
59660000000,-3.90129105
59670000000,-3.899950835
59680000000,-3.898165552
59690000000,-3.897211966
59700000000,-3.896262298
59710000000,-3.895263764
59720000000,-3.894889269
59730000000,-3.894530804
59740000000,-3.894228275
59750000000,-3.893881313
59760000000,-3.893455625
59770000000,-3.892495864
59780000000,-3.89163863
59790000000,-3.891070453
59800000000,-3.889609786
59810000000,-3.888743839
59820000000,-3.887532567
59830000000,-3.885733467
59840000000,-3.884067001
59850000000,-3.882109402
59860000000,-3.879618591
59870000000,-3.878238722
59880000000,-3.877002998
59890000000,-3.875185092
59900000000,-3.873468341
59910000000,-3.872358647
59920000000,-3.870868433
59930000000,-3.869683445
59940000000,-3.86815703
59950000000,-3.867394336
59960000000,-3.865991721
59970000000,-3.864712648
59980000000,-3.863285987
59990000000,-3.861241309
60000000000,-3.859505217
60010000000,-3.859261966
60020000000,-3.858127497
60030000000,-3.85712487
60040000000,-3.855491475
60050000000,-3.853697895
60060000000,-3.85212793
60070000000,-3.849807163
60080000000,-3.847967384
60090000000,-3.847186409
60100000000,-3.846023214
60110000000,-3.84453074
60120000000,-3.842986428
60130000000,-3.842118647
60140000000,-3.840781119
60150000000,-3.839787907
60160000000,-3.838367777
60170000000,-3.837433586
60180000000,-3.835973954
60190000000,-3.835182165
60200000000,-3.833840177
60210000000,-3.832834596
60220000000,-3.831977919
60230000000,-3.831068543
60240000000,-3.830465906
60250000000,-3.83005696
60260000000,-3.82950453
60270000000,-3.82868731
60280000000,-3.827806014
60290000000,-3.828535441
60300000000,-3.828508647
60310000000,-3.827291012
60320000000,-3.826935188
60330000000,-3.827010288
60340000000,-3.826035725
60350000000,-3.825809868
60360000000,-3.825429557
60370000000,-3.82496784
60380000000,-3.82485118
60390000000,-3.824561462
60400000000,-3.824770411
60410000000,-3.82409134
60420000000,-3.823946775
60430000000,-3.823984816
60440000000,-3.823870629
60450000000,-3.823271849
60460000000,-3.823461166
60470000000,-3.823260733
60480000000,-3.823459769
60490000000,-3.823753596
60500000000,-3.824145582
60510000000,-3.825418799
60520000000,-3.826107951
60530000000,-3.826526915
60540000000,-3.82699442
60550000000,-3.826960463
60560000000,-3.827148364
60570000000,-3.828160562
60580000000,-3.828760031
60590000000,-3.829066537
60600000000,-3.829962709
60610000000,-3.831636703
60620000000,-3.832256046
60630000000,-3.832658753
60640000000,-3.833376258
60650000000,-3.83457676
60660000000,-3.835551516
60670000000,-3.836393688
60680000000,-3.837204726
60690000000,-3.837868195
60700000000,-3.839067618
60710000000,-3.839646963
60720000000,-3.841120145
60730000000,-3.84225183
60740000000,-3.844372998
60750000000,-3.845647784
60760000000,-3.846667279
60770000000,-3.847262242
60780000000,-3.847803723
60790000000,-3.849076896
60800000000,-3.850455466
60810000000,-3.851361446
60820000000,-3.852317097
60830000000,-3.853548329
60840000000,-3.854348424
60850000000,-3.855841182
60860000000,-3.857576752
60870000000,-3.858168239
60880000000,-3.85867215
60890000000,-3.859545817
60900000000,-3.860095885
60910000000,-3.860906683
60920000000,-3.861943465
60930000000,-3.861725283
60940000000,-3.861368497
60950000000,-3.861652037
60960000000,-3.860886448
60970000000,-3.8616069
60980000000,-3.861065173
60990000000,-3.861401244
61000000000,-3.861056689
61010000000,-3.861006288
61020000000,-3.861539499
61030000000,-3.861341337
61040000000,-3.860790534
61050000000,-3.860577194
61060000000,-3.859783922
61070000000,-3.859573454
61080000000,-3.859117735
61090000000,-3.858977867
61100000000,-3.857654269
61110000000,-3.857552103
61120000000,-3.856823133
61130000000,-3.856226112
61140000000,-3.85564599
61150000000,-3.855229966
61160000000,-3.85381712
61170000000,-3.852969132
61180000000,-3.851014575
61190000000,-3.849810323
61200000000,-3.848273888
61210000000,-3.846047743
61220000000,-3.844002834
61230000000,-3.842181695
61240000000,-3.839453045
61250000000,-3.837577812
61260000000,-3.835833146
61270000000,-3.832992967
61280000000,-3.830882057
61290000000,-3.82902365
61300000000,-3.826540088
61310000000,-3.824645204
61320000000,-3.822891461
61330000000,-3.819995251
61340000000,-3.817354313
61350000000,-3.815307503
61360000000,-3.813510597
61370000000,-3.811230011
61380000000,-3.8084223
61390000000,-3.805919753
61400000000,-3.803478828
61410000000,-3.800497
61420000000,-3.797391659
61430000000,-3.794320344
61440000000,-3.791109521
61450000000,-3.78778907
61460000000,-3.784979354
61470000000,-3.781844375
61480000000,-3.778720378
61490000000,-3.775081077
61500000000,-3.771902558
61510000000,-3.768745494
61520000000,-3.765825183
61530000000,-3.762552215
61540000000,-3.759755408
61550000000,-3.756855617
61560000000,-3.754599119
61570000000,-3.751450004
61580000000,-3.748201484
61590000000,-3.744887872
61600000000,-3.741631756
61610000000,-3.738397509
61620000000,-3.735490681
61630000000,-3.731851243
61640000000,-3.729137265
61650000000,-3.726487214
61660000000,-3.723853603
61670000000,-3.721984436
61680000000,-3.719626642
61690000000,-3.716464491
61700000000,-3.714075928
61710000000,-3.711604303
61720000000,-3.708624639
61730000000,-3.705333943
61740000000,-3.702027994
61750000000,-3.699745154
61760000000,-3.697204663
61770000000,-3.695204802
61780000000,-3.693091455
61790000000,-3.690897832
61800000000,-3.688952909
61810000000,-3.687264567
61820000000,-3.685813639
61830000000,-3.684784475
61840000000,-3.684310181
61850000000,-3.682872166
61860000000,-3.681884071
61870000000,-3.680727315
61880000000,-3.680040647
61890000000,-3.679598869
61900000000,-3.679043149
61910000000,-3.678314177
61920000000,-3.67771999
61930000000,-3.677702777
61940000000,-3.677347395
61950000000,-3.67751306
61960000000,-3.677970566
61970000000,-3.678660616
61980000000,-3.678970323
61990000000,-3.679661366
62000000000,-3.680245978
62010000000,-3.68038267
62020000000,-3.681066132
62030000000,-3.682060562
62040000000,-3.683351489
62050000000,-3.685524013
62060000000,-3.687599287
62070000000,-3.690087324
62080000000,-3.691977741
62090000000,-3.693707767
62100000000,-3.695468732
62110000000,-3.697776733
62120000000,-3.699917314
62130000000,-3.702411002
62140000000,-3.704945695
62150000000,-3.707735995
62160000000,-3.711115951
62170000000,-3.71486861
62180000000,-3.719457836
62190000000,-3.723737973
62200000000,-3.727707483
62210000000,-3.731613975
62220000000,-3.735696056
62230000000,-3.739811415
62240000000,-3.744372429
62250000000,-3.749019432
62260000000,-3.753819926
62270000000,-3.758165452
62280000000,-3.763390087
62290000000,-3.768198551
62300000000,-3.77366906
62310000000,-3.780708455
62320000000,-3.786649041
62330000000,-3.792064607
62340000000,-3.79827231
62350000000,-3.804145869
62360000000,-3.810551372
62370000000,-3.816776325
62380000000,-3.822970809
62390000000,-3.82962501
62400000000,-3.836398293
62410000000,-3.843616279
62420000000,-3.850812636
62430000000,-3.858239682
62440000000,-3.865448012
62450000000,-3.873020628
62460000000,-3.880591721
62470000000,-3.888696511
62480000000,-3.896464108
62490000000,-3.904551985
62500000000,-3.912556456
62510000000,-3.920147323
62520000000,-3.927510818
62530000000,-3.935608974
62540000000,-3.943240401
62550000000,-3.951247967
62560000000,-3.959593533
62570000000,-3.967785137
62580000000,-3.975904468
62590000000,-3.984437962
62600000000,-3.992440436
62610000000,-4.000442705
62620000000,-4.0096546
62630000000,-4.018816425
62640000000,-4.027233614
62650000000,-4.035733741
62660000000,-4.045381522
62670000000,-4.053960158
62680000000,-4.062943781
62690000000,-4.071353994
62700000000,-4.07980148
62710000000,-4.088062899
62720000000,-4.095903249
62730000000,-4.104408833
62740000000,-4.112184736
62750000000,-4.120829101
62760000000,-4.12973928
62770000000,-4.138362594
62780000000,-4.146918622
62790000000,-4.154762124
62800000000,-4.163225431
62810000000,-4.171584931
62820000000,-4.179460061
62830000000,-4.187050423
62840000000,-4.195009741
62850000000,-4.202871606
62860000000,-4.210634236
62870000000,-4.218430209
62880000000,-4.22579551
62890000000,-4.233417911
62900000000,-4.240924562
62910000000,-4.248105123
62920000000,-4.254743438
62930000000,-4.262400414
62940000000,-4.269419644
62950000000,-4.27617016
62960000000,-4.282552904
62970000000,-4.288231122
62980000000,-4.29476064
62990000000,-4.300671823
63000000000,-4.30609821
63010000000,-4.311117605
63020000000,-4.316060745
63030000000,-4.320627846
63040000000,-4.325488364
63050000000,-4.329199522
63060000000,-4.33365715
63070000000,-4.337675526
63080000000,-4.340900064
63090000000,-4.34384964
63100000000,-4.347577
63110000000,-4.350039532
63120000000,-4.352370629
63130000000,-4.354636862
63140000000,-4.356449704
63150000000,-4.358220707
63160000000,-4.360475712
63170000000,-4.362200291
63180000000,-4.364199497
63190000000,-4.365240752
63200000000,-4.366314846
63210000000,-4.367535893
63220000000,-4.368305818
63230000000,-4.368890148
63240000000,-4.370018721
63250000000,-4.370637515
63260000000,-4.370556469
63270000000,-4.37103512
63280000000,-4.370345472
63290000000,-4.368818469
63300000000,-4.367674296
63310000000,-4.366148104
63320000000,-4.364323155
63330000000,-4.363143161
63340000000,-4.361605332
63350000000,-4.358722779
63360000000,-4.356056619
63370000000,-4.353616419
63380000000,-4.351528315
63390000000,-4.348888093
63400000000,-4.346569162
63410000000,-4.343398306
63420000000,-4.340499218
63430000000,-4.337822024
63440000000,-4.334424133
63450000000,-4.330705335
63460000000,-4.326867583
63470000000,-4.322687542
63480000000,-4.318167327
63490000000,-4.314113947
63500000000,-4.309806281
63510000000,-4.305226015
63520000000,-4.300289963
63530000000,-4.295259147
63540000000,-4.290500065
63550000000,-4.28519204
63560000000,-4.279583957
63570000000,-4.27515037
63580000000,-4.269913178
63590000000,-4.264925311
63600000000,-4.259308628
63610000000,-4.253910383
63620000000,-4.249021664
63630000000,-4.243787255
63640000000,-4.237930228
63650000000,-4.232115737
63660000000,-4.22617115
63670000000,-4.219514468
63680000000,-4.213966756
63690000000,-4.208806042
63700000000,-4.202367864
63710000000,-4.19583387
63720000000,-4.189768339
63730000000,-4.18410851
63740000000,-4.178333593
63750000000,-4.172265441
63760000000,-4.166221234
63770000000,-4.160190907
63780000000,-4.154213619
63790000000,-4.148522269
63800000000,-4.14285734
63810000000,-4.136963692
63820000000,-4.13108989
63830000000,-4.124625408
63840000000,-4.118410196
63850000000,-4.112069596
63860000000,-4.106186363
63870000000,-4.100085283
63880000000,-4.094024801
63890000000,-4.087462622
63900000000,-4.081158781
63910000000,-4.074731194
63920000000,-4.068619665
63930000000,-4.0621035
63940000000,-4.056307869
63950000000,-4.050253576
63960000000,-4.043765852
63970000000,-4.038315254
63980000000,-4.0325695
63990000000,-4.027459621
64000000000,-4.021494231
64010000000,-4.015699867
64020000000,-4.010324501
64030000000,-4.004255749
64040000000,-3.998713519
64050000000,-3.992285033
64060000000,-3.986883794
64070000000,-3.981677968
64080000000,-3.975798671
64090000000,-3.970320038
64100000000,-3.965787814
64110000000,-3.960213681
64120000000,-3.955220505
64130000000,-3.949729796
64140000000,-3.944617069
64150000000,-3.939294358
64160000000,-3.933938276
64170000000,-3.928622856
64180000000,-3.923149763
64190000000,-3.917731449
64200000000,-3.913568057
64210000000,-3.909493192
64220000000,-3.904633698
64230000000,-3.900851074
64240000000,-3.896792468
64250000000,-3.892230954
64260000000,-3.887654554
64270000000,-3.88453289
64280000000,-3.88075588
64290000000,-3.877647724
64300000000,-3.87342096
64310000000,-3.869312832
64320000000,-3.866231216
64330000000,-3.863678405
64340000000,-3.860918611
64350000000,-3.858436651
64360000000,-3.855349355
64370000000,-3.852854947
64380000000,-3.849906201
64390000000,-3.847795521
64400000000,-3.84642737
64410000000,-3.844614651
64420000000,-3.842822196
64430000000,-3.840350511
64440000000,-3.838673601
64450000000,-3.837061743
64460000000,-3.835600096
64470000000,-3.833969091
64480000000,-3.832468052
64490000000,-3.831381216
64500000000,-3.830398405
64510000000,-3.829165412
64520000000,-3.828903461
64530000000,-3.828203358
64540000000,-3.828372728
64550000000,-3.828431163
64560000000,-3.828161643
64570000000,-3.827518059
64580000000,-3.827502795
64590000000,-3.827693176
64600000000,-3.828358514
64610000000,-3.828804989
64620000000,-3.828754049
64630000000,-3.829118999
64640000000,-3.830313892
64650000000,-3.831289759
64660000000,-3.831997791
64670000000,-3.833471096
64680000000,-3.835290357
64690000000,-3.836753003
64700000000,-3.838760354
64710000000,-3.840840483
64720000000,-3.842984463
64730000000,-3.845064268
64740000000,-3.84709776
64750000000,-3.848994672
64760000000,-3.8511579
64770000000,-3.852940878
64780000000,-3.854712327
64790000000,-3.857285991
64800000000,-3.859473975
64810000000,-3.861803705
64820000000,-3.864104977
64830000000,-3.866521413
64840000000,-3.869326712
64850000000,-3.87163673
64860000000,-3.874059632
64870000000,-3.877183011
64880000000,-3.880374408
64890000000,-3.883137894
64900000000,-3.885821989
64910000000,-3.888165257
64920000000,-3.891286668
64930000000,-3.894096783
64940000000,-3.89734321
64950000000,-3.89999086
64960000000,-3.903498437
64970000000,-3.906138509
64980000000,-3.90846519
64990000000,-3.910301394
65000000000,-3.912443265
65010000000,-3.914955031
65020000000,-3.915885187
65030000000,-3.918513975
65040000000,-3.920360017
65050000000,-3.922788585
65060000000,-3.924069677
65070000000,-3.925160808
65080000000,-3.927118089
65090000000,-3.927988335
65100000000,-3.928637627
65110000000,-3.929268887
65120000000,-3.930170581
65130000000,-3.93104793
65140000000,-3.931756078
65150000000,-3.931807336
65160000000,-3.932123823
65170000000,-3.932231249
65180000000,-3.932438656
65190000000,-3.932596417
65200000000,-3.932613369
65210000000,-3.932112838
65220000000,-3.931016842
65230000000,-3.930416372
65240000000,-3.928734307
65250000000,-3.926448194
65260000000,-3.924645998
65270000000,-3.923106044
65280000000,-3.921425477
65290000000,-3.919879861
65300000000,-3.917623571
65310000000,-3.915655428
65320000000,-3.913281164
65330000000,-3.910803874
65340000000,-3.907799008
65350000000,-3.904802636
65360000000,-3.902030759
65370000000,-3.899104468
65380000000,-3.895924173
65390000000,-3.892528029
65400000000,-3.888645046
65410000000,-3.885393608
65420000000,-3.881653993
65430000000,-3.878114066
65440000000,-3.874166051
65450000000,-3.869929524
65460000000,-3.866116788
65470000000,-3.862687527
65480000000,-3.858694119
65490000000,-3.854796836
65500000000,-3.851157383
65510000000,-3.847004775
65520000000,-3.843236995
65530000000,-3.839040165
65540000000,-3.834557382
65550000000,-3.830482692
65560000000,-3.825768282
65570000000,-3.820995874
65580000000,-3.816969419
65590000000,-3.812321991
65600000000,-3.808138402
65610000000,-3.803443332
65620000000,-3.798124703
65630000000,-3.793469356
65640000000,-3.788888243
65650000000,-3.784560489
65660000000,-3.780114254
65670000000,-3.776022866
65680000000,-3.772054915
65690000000,-3.768058522
65700000000,-3.76553901
65710000000,-3.762239393
65720000000,-3.758805695
65730000000,-3.754673535
65740000000,-3.751063628
65750000000,-3.747469205
65760000000,-3.74483526
65770000000,-3.741768621
65780000000,-3.738835634
65790000000,-3.735713485
65800000000,-3.733346679
65810000000,-3.730949947
65820000000,-3.728799943
65830000000,-3.727189219
65840000000,-3.725607649
65850000000,-3.724807336
65860000000,-3.723602454
65870000000,-3.722756396
65880000000,-3.721670077
65890000000,-3.721005651
65900000000,-3.720502393
65910000000,-3.72019767
65920000000,-3.719965619
65930000000,-3.720144064
65940000000,-3.720057894
65950000000,-3.719728037
65960000000,-3.720250337
65970000000,-3.720190408
65980000000,-3.720766182
65990000000,-3.720993114
66000000000,-3.722622665
66010000000,-3.724385137
66020000000,-3.725664979
66030000000,-3.727769188
66040000000,-3.72956959
66050000000,-3.732043557
66060000000,-3.733892141
66070000000,-3.735988443
66080000000,-3.739390951
66090000000,-3.742150448
66100000000,-3.744606474
66110000000,-3.748022272
66120000000,-3.751114124
66130000000,-3.754652507
66140000000,-3.758162674
66150000000,-3.762094403
66160000000,-3.76607882
66170000000,-3.769660537
66180000000,-3.773523519
66190000000,-3.777413879
66200000000,-3.78113485
66210000000,-3.785273918
66220000000,-3.789813982
66230000000,-3.793775394
66240000000,-3.797991992
66250000000,-3.802865287
66260000000,-3.807990132
66270000000,-3.812276812
66280000000,-3.816881765
66290000000,-3.820944591
66300000000,-3.826220757
66310000000,-3.831260975
66320000000,-3.835982174
66330000000,-3.84081233
66340000000,-3.845770714
66350000000,-3.850509005
66360000000,-3.855913786
66370000000,-3.861170789
66380000000,-3.866757202
66390000000,-3.871537502
66400000000,-3.875782938
66410000000,-3.88049307
66420000000,-3.885515396
66430000000,-3.890858383
66440000000,-3.896214412
66450000000,-3.901568891
66460000000,-3.906612726
66470000000,-3.911475838
66480000000,-3.916657187
66490000000,-3.92154961
66500000000,-3.926461803
66510000000,-3.931662108
66520000000,-3.936742151
66530000000,-3.941987662
66540000000,-3.946744851
66550000000,-3.951460963
66560000000,-3.956093796
66570000000,-3.960790054
66580000000,-3.965368034
66590000000,-3.969621215
66600000000,-3.973716337
66610000000,-3.977837156
66620000000,-3.982092233
66630000000,-3.986210482
66640000000,-3.990110159
66650000000,-3.99396335
66660000000,-3.997562769
66670000000,-4.001312073
66680000000,-4.004501365
66690000000,-4.008646324
66700000000,-4.012085797
66710000000,-4.01555323
66720000000,-4.018969947
66730000000,-4.022153362
66740000000,-4.025584346
66750000000,-4.028727749
66760000000,-4.031645109
66770000000,-4.035348906
66780000000,-4.038823426
66790000000,-4.041524005
66800000000,-4.044141619
66810000000,-4.046981757
66820000000,-4.049739919
66830000000,-4.052526805
66840000000,-4.054417657
66850000000,-4.057016486
66860000000,-4.059244786
66870000000,-4.061071086
66880000000,-4.063304039
66890000000,-4.065360979
66900000000,-4.067216504
66910000000,-4.069814999
66920000000,-4.071019104
66930000000,-4.072260302
66940000000,-4.073063565
66950000000,-4.074720852
66960000000,-4.075320678
66970000000,-4.077127843
66980000000,-4.07935739
66990000000,-4.081396705
67000000000,-4.083426703
End.,
